"AF3","F7","F3","FC5","T7","P7","O1","O2","P8","T8","FC6","F4","F8","AF4","eyeDetection"
-0.511640549018766,-1.234144580988152,-0.7229007076281014,-1.157274575851594,-1.9044360514134948,-0.21619490359565152,0.7092787520945493,0.21252197894515645,0.8606811627257767,-0.2681699396735021,-0.6254504232664577,0.4135634434910635,-1.116264889963274,-0.24613733291977866,0
-0.46362553101213316,-1.2145967533270547,-0.28266092130330606,-0.9132315534426806,-1.6082087799847797,-0.043070078450707906,1.030935723815012,0.6029532366815947,1.085333534013513,0.603709400777288,0.0,0.6545849957853838,-0.7084471844777996,0.03296767918170644,0
-0.30399118543161097,-1.1183612940724215,0.1888493790919853,-0.7612242207499881,-1.1849090857147855,0.5632890652276508,1.0636040100053712,0.6742553989986885,0.7111560454725587,1.0066183833111793,0.14866788148212184,0.6545849957853838,-0.42917160998211673,0.3120726912832206,0
-0.3516944176070534,-1.0604696506145563,-0.15696571768687317,-0.8829488426328,-1.1849090857147855,0.5202189867769429,0.8053989018469393,0.3191290954192816,0.1502545080690368,0.3688971853070344,-0.297916496876243,0.20678172174553175,-0.6870932799811574,-0.04929148149498958,0
-0.44772445362031904,-1.1567051098691896,-0.8485959112445344,-0.8829488426328,-1.6502912057309365,-0.26010949338847145,0.7092787520945493,-0.31982134942243845,-0.33624916611578565,-0.2348122154702536,-0.5958329937524333,0.0,-1.009076663470163,-0.3280764190413345,0
-0.4798383942351377,-1.2145967533270547,-0.9117500867201425,-0.8829488426328,-1.6502912057309365,-0.17312482514494362,1.0636040100053712,-0.284516395265407,0.18745343967838657,-0.20080041824333733,-0.47678254178438867,0.20678172174553175,-0.9445962459704123,-0.03264760462653717,0
-0.3679072808300579,-0.9642341913599232,-0.3770856108492987,-0.6394995988672301,-1.1007442342225466,0.6933438119218865,1.289140831973444,0.5676482825245633,1.309256514485364,0.16809676706369708,0.0,0.5854339654614065,-0.5581324449816562,0.27910501210151417,0
-0.11193111340507976,-0.578540514815947,0.0631541754755524,-0.15200733269269254,-0.7616093914447912,0.9095387155174612,1.0956440599228536,0.8161674696298451,1.4967099541637507,0.7718061678409256,0.2973357629641909,1.1359567311475631,-0.2575029659892929,0.3613641727782102,0
-0.06391609539844695,-0.6364321582738122,-0.06254102814088051,-0.0914419110729314,-1.1007442342225466,0.3031795718391794,1.030935723815012,0.42573621189340677,0.7111560454725587,0.9058911376777065,0.05923485902804902,1.1017169005987746,-0.30062947899236325,0.18052204911153502,0
-0.3516944176070534,-1.0412977427161638,-0.565934989941284,-0.7612242207499881,-1.9044360514134948,-0.3031795718391794,0.9348155740626222,0.2838241412622502,0.44930474257547265,0.6377211980041448,-0.2084834744221702,0.3444124131670862,-0.5367785404849759,0.0,0
-0.44772445362031904,-1.137533201970797,-0.8798664253149746,-1.004673464515612,-2.1156733257470126,-0.47630439698412297,0.7733588519294855,0.14191207063109362,0.7483549770818422,0.603709400777288,0.05923485902804902,0.13763069142155446,-0.5581324449816562,0.21348972829324148,0
-0.25597616742497814,-0.9642341913599232,-0.5972055040117242,-0.6394995988672301,-1.7352812028260587,-0.34624965028988725,0.8701072379547807,-0.17790927879128185,0.5988298598286906,0.7718061678409256,0.38676878541826376,0.6196737960101951,-0.3864638009887942,0.3447202959097869,0
-0.2718772448167923,-0.9063425479020409,-0.565934989941284,-0.6697823096770567,-1.693198777079902,-0.34624965028988725,0.8380671880372983,-0.284516395265407,-0.07439786321869953,0.3355394611037264,0.17828531099614636,0.5162829351374292,-0.47229812298522517,0.04929148149498958,0
-0.4957394716269518,-1.0796415585129318,-0.943020600790527,-1.004673464515612,-1.5661263542386228,-0.21619490359565152,0.8701072379547807,-0.07130216231715669,-0.03719893160934976,0.034011797226916274,-0.297916496876243,0.034239830548788576,-0.7084471844777996,-0.016323802313283144,0
-0.4798383942351377,-0.9834060992582986,-0.6916301935577169,-0.8829488426328,-1.2269915114609422,-0.08614015690141581,0.8053989018469393,-0.14260432463425043,0.4121058109661229,0.3021817369004184,-0.3281146603022668,0.13763069142155446,-0.7511549934711603,0.22981353060652462,0
-0.20796114941834537,-0.6556040661722048,-0.09381154221132078,-0.42633306591148673,-1.1007442342225466,-0.043070078450707906,0.4837419301264763,-0.4264284658965636,-0.07439786321869953,0.1007272456334728,-0.059815592940048325,0.7573044874316884,-0.5581324449816562,0.41033557971803053,0
0.07981717279023275,-0.5206488713580819,0.2520035545675377,-0.0914419110729314,-0.8886818142860703,0.4332343185334151,0.7413188020120031,0.0,0.11232618564386816,0.034011797226916274,0.17828531099614636,1.170867930922813,-0.21437645298622257,0.6401491103245551,0
0.20764936358712666,-0.5398207792564573,0.34642824411353035,0.030282710809880566,-0.6774445399525525,0.9526087939681691,1.192392445948149,0.7808625154728136,1.1225324656227964,0.4029089825338912,0.4169669488443404,1.2393475920203292,-0.04270780899336063,0.623825308011272,0
0.1437332681886797,-0.5398207792564573,0.2201198931623698,0.06115920026305083,-0.9736718113812676,0.7364138903725944,1.0956440599228536,0.5676482825245633,0.7111560454725587,0.2688240126971699,0.14866788148212184,0.8606953483044544,-0.30062947899236325,0.3283964935965038,0
0.0957182501820469,-0.48230505556131387,0.31454458270836244,0.06115920026305083,-0.9736718113812676,0.6063591436783587,0.9988956738975584,0.0,-0.07439786321869953,0.0,-0.14924861539412115,0.7573044874316884,-0.4509442184885449,0.49259474039475565,0
0.1599461314116842,-0.5398207792564573,0.31454458270836244,0.030282710809880566,-0.9307642400322272,0.6063591436783587,1.3211808818908979,0.2838241412622502,0.673957113863209,0.3021817369004184,0.3275339263902675,1.274258791795579,-0.17166864399286194,0.7716997524962408,0
0.1599461314116842,-0.6747759740705803,0.15757886502154503,-0.06115920026305083,-1.2269915114609422,-0.043070078450707906,0.9348155740626222,0.3904312577363753,0.9730073483696449,0.7044366464107609,0.4169669488443404,1.2051077614715406,-0.21437645298622257,0.5908576288295656,0
0.1119311134050514,-0.578540514815947,0.34642824411353035,0.1828838221458628,-1.1849090857147855,-0.38931972874051834,0.354325257910822,-0.07130216231715669,0.0751272540345184,0.3021817369004184,-0.3281146603022668,0.8606953483044544,-0.6008402539749786,0.42697945658648295,0
0.2397633042019453,-0.38569367654395903,0.5978186513463961,0.0914419110729314,-0.8886818142860703,0.26010949338847145,0.8701072379547807,0.03530495415696846,0.1502545080690368,0.0,-0.41696694884428753,1.0332372395012586,-0.5367785404849759,0.4433032588997661,0
0.28777832220857813,-0.5398207792564573,0.28327406863797794,-0.6092168880573495,-0.9307642400322272,0.7364138903725944,1.2564725457830852,0.5676482825245633,0.8606811627257767,0.2688240126971699,0.08885228854207353,1.1017169005987746,-0.3433372879857239,0.49259474039475565,0
0.3357933402152109,-0.6168843306127151,-0.03127051407044026,-0.6092168880573495,-0.8465993885399885,0.8233985586161222,1.1276841098403074,0.7808625154728136,0.93507902594441,0.536993952370672,0.2381009039361947,0.8606953483044544,-0.47229812298522517,0.7387320733145343,0
0.39970943561365785,-0.38569367654395903,0.09442468954599265,0.15200733269269254,-0.5924545428573552,0.8664686370668302,1.2564725457830852,0.46104116605043816,0.9730073483696449,0.7384484436376176,0.4465843783583649,0.8264555177557268,-0.2788568704859732,0.8536388386177967,0
0.2556643815937594,-0.44358532000182416,0.03188366140511213,0.12172462188281197,-0.7616093914447912,0.7364138903725944,1.546717703858971,0.4970383742105005,1.4587816317385822,1.3081460471879893,0.7741183047485796,1.067477070050047,0.1289608349995013,0.6401491103245551,0
0.17584720880349836,-0.7326676175284454,-0.1256952036164329,-0.7000650204869372,-1.0578366628735063,0.7794839688232256,1.514677653941517,1.0999916108920953,1.3843837685198825,1.3755155686182137,0.595252259840434,1.0332372395012586,0.0,0.5418862218897452,0
0.3195804769922064,-0.6747759740705803,-0.06254102814088051,-0.9743907537057314,-1.1428266599686285,0.39016424008270717,1.192392445948149,0.6389504448416571,0.2618513028970861,0.6377211980041448,0.2973357629641909,0.7922156872069382,-0.3646911924823661,0.5252423450212929,0
0.27187724481676395,-0.48230505556131387,-0.1256952036164329,-0.7612242207499881,-1.2269915114609422,0.043070078450707906,0.9348155740626222,-0.3551263035794069,-0.5981004690128054,0.3021817369004184,0.11905045196809735,0.48204310458864064,-0.3864638009887942,0.3940117774047765,0
0.0,-0.6747759740705803,-0.4402397863248511,-0.8526661318229194,-1.2269915114609422,0.34624965028988725,0.9021472878722631,-0.31982134942243845,-0.33624916611578565,0.4029089825338912,0.0,0.44780327403985204,-0.3433372879857239,0.47627093808147253,0
-0.06391609539844695,-0.9446863636988261,-0.7860548831037095,-1.126398086398424,-1.1007442342225466,0.47630439698412297,0.9021472878722631,0.24851918710521878,0.8978800943350601,0.3355394611037264,0.05923485902804902,0.48204310458864064,-0.2788568704859732,0.49259474039475565,0
-0.06391609539844695,-0.8292789965458003,-0.9117500867201425,-1.2789991977344062,-1.2269915114609422,0.4332343185334151,0.966855623980076,0.6029532366815947,1.6834340030263184,0.57035167657398,0.2084834744221702,0.24102155229432032,-0.32198338348904354,0.29542881441479735,0
-0.06391609539844695,-0.5977124227143397,-0.7860548831037095,-1.2789991977344062,-1.3540639343022214,0.8664686370668302,1.0636040100053712,0.8161674696298451,1.309256514485364,1.1740610773512086,0.17828531099614636,0.24102155229432032,-0.3864638009887942,0.42697945658648295,0
0.03180215478359994,-0.6168843306127151,-0.6916301935577169,-1.004673464515612,-1.3119815085560644,1.0826635406624048,0.966855623980076,0.4970383742105005,0.9730073483696449,1.4762428142516864,0.4169669488443404,0.44780327403985204,-0.21437645298622257,0.6567929871930076,0
0.0,-0.7713873530879352,-0.8798664253149746,-1.0355499539687822,-1.2269915114609422,0.5202189867769429,0.7413188020120031,0.17721702478812504,1.085333534013513,1.3421578444149056,0.6248696893544584,0.48204310458864064,0.0,0.5418862218897452,0
0.03180215478359994,-0.6747759740705803,-0.6916301935577169,-1.2178399974713554,-1.0578366628735063,0.08698466824352782,0.6445704159867078,0.3191290954192816,0.785553908691192,1.3081460471879893,0.5360174008124378,0.6888248263341724,0.08625302600614068,0.607501505698018,0
0.22386222681013115,-0.5398207792564573,0.03188366140511213,-0.9743907537057314,-1.0578366628735063,0.0,0.612530366069254,0.21252197894515645,0.2618513028970861,0.9732606591078712,0.47620180787233657,1.0332372395012586,-0.10718822649311129,0.7880235548095239,0
0.30367939960039225,-0.5014769634596893,0.4402397863247953,-0.6394995988672301,-1.1428266599686285,0.0,0.6445704159867078,0.07060990831399988,0.22465237128773632,0.1340849698367808,0.35715135590429203,1.2051077614715406,-0.4509442184885449,0.6567929871930076,0
0.1917482861953125,-0.5593686069175716,-0.03127051407044026,-0.7915069315598686,-1.3119815085560644,0.08698466824352782,0.6766104659041902,0.03530495415696846,0.44930474257547265,0.0,0.11905045196809735,0.9983260397260088,-0.42917160998211673,0.42697945658648295,0
0.07981717279023275,-0.5977124227143397,-0.6603596794872767,-1.065832664778663,-1.3540639343022214,0.13005474669423572,0.8053989018469393,-0.17790927879128185,0.5237026057941059,0.8051638920442337,0.11905045196809735,0.6888248263341724,-0.32198338348904354,0.42697945658648295,0
-0.048015018006632805,-0.5977124227143397,-0.7541712216985417,-1.3704411088073376,-1.0157542371273494,0.13005474669423572,0.8380671880372983,-0.24851918710528173,0.5237026057941059,0.9392488618810144,0.2381009039361947,0.3101725826182976,-0.4078177054854745,0.49259474039475565,0
-0.09603003601329396,-0.6556040661722048,-0.7541712216985417,-1.7356149744557465,-0.7616093914447912,0.39016424008270717,0.7733588519294855,-0.14260432463425043,0.3369785569316045,0.536993952370672,0.02961742951402451,0.06915103032397729,-0.4078177054854745,0.4433032588997661,0
0.01590107739178579,-0.6556040661722048,-0.8173253971741499,-1.3395646193541673,-0.9736718113812676,0.47630439698412297,0.7092787520945493,-0.17790927879128185,0.11232618564386816,0.4696244309405072,-0.11963118588009665,0.0,-0.30062947899236325,0.41033557971803053,0
0.1917482861953125,-0.4048655844423516,-0.5972055040117242,-0.7000650204869372,-1.1428266599686285,0.6063591436783587,0.8053989018469393,0.1059148624710313,0.48650367418482243,0.3355394611037264,0.08885228854207353,0.24102155229432032,-0.42917160998211673,0.5908576288295656,0
0.27187724481676395,-0.21239466593308515,-0.09381154221132078,-0.7309415099401615,-0.6353621142063955,0.9965233837610659,1.289140831973444,0.7808625154728136,0.9730073483696449,0.503636228167364,0.505819237386361,0.7573044874316884,-0.19302254848954226,0.6894405918195448,0
0.27187724481676395,-0.2507384817298532,0.0631541754755524,-0.9132315534426806,-0.29622727142871513,0.9965233837610659,1.4820093677511295,0.42573621189340677,0.5616309282193408,0.8725334134743984,0.5360174008124378,1.1017169005987746,0.32240208749875326,0.607501505698018,0
0.30367939960039225,-0.13495519481410578,0.0631541754755524,-0.7915069315598686,-0.5503721171112733,0.5632890652276508,0.8380671880372983,-0.49703837421056346,0.03792832242516864,0.9392488618810144,0.2973357629641909,0.9983260397260088,0.1289608349995013,0.7550558756278175,0
0.2556643815937594,-0.13495519481410578,0.1888493790919853,-0.6092168880573495,-0.8886818142860703,0.4332343185334151,0.5157819800439587,-0.3551263035794069,0.4121058109661229,0.603709400777288,0.2084834744221702,0.6545849957853838,-0.21437645298622257,0.8866065177995031,0
0.2397633042019453,-0.3086301251877184,0.1888493790919853,-0.6092168880573495,-0.7195269656986343,0.7794839688232256,1.0956440599228536,0.07060990831399988,0.5616309282193408,0.57035167657398,0.17828531099614636,0.5162829351374292,-0.1285421309897916,0.623825308011272,0
0.30367939960039225,-0.23156657383146062,0.03188366140511213,-0.7000650204869372,-0.29622727142871513,1.0826635406624048,1.4820093677511295,-0.03599720816012528,0.4121058109661229,0.603709400777288,0.11905045196809735,0.6888248263341724,-0.06406171349004094,0.49259474039475565,0
0.3357933402152109,-0.17367493037359547,0.0631541754755524,-0.6394995988672301,-0.25414484568255824,1.3427730340508763,1.192392445948149,0.17721702478812504,0.7111560454725587,0.6710789222074528,0.2973357629641909,0.7922156872069382,-0.10718822649311129,0.7057643941328279,0
0.3838083582218437,-0.26991038962822866,0.3776987581839706,-0.5177749769844181,-0.5082896913651165,1.1696482089060094,1.2564725457830852,0.4970383742105005,0.8978800943350601,0.8051638920442337,0.4465843783583649,0.9640862091772202,-0.10718822649311129,0.7880235548095239,0
0.4315115903972578,-0.3086301251877184,0.6922433408923888,-0.5480576877942447,-0.6353621142063955,0.6933438119218865,1.514677653941517,0.24851918710521878,0.673957113863209,0.6377211980041448,0.38676878541826376,1.170867930922813,-0.21437645298622257,0.7716997524962408,0
0.3838083582218437,-0.4048655844423516,0.5659349899412283,-0.7612242207499881,-0.5503721171112733,0.7794839688232256,1.3532209318083803,0.03530495415696846,0.48650367418482243,0.3021817369004184,0.2677183334502192,1.1017169005987746,-0.3646911924823661,0.7387320733145343,0
0.30367939960039225,-0.5977124227143397,0.1888493790919853,-0.8223834210130929,-0.5924545428573552,0.9965233837610659,1.289140831973444,0.17721702478812504,0.44930474257547265,0.034011797226916274,-0.14924861539412115,0.44780327403985204,-0.4509442184885449,0.47627093808147253,0
0.28777832220857813,-0.578540514815947,0.15757886502154503,-0.6697823096770567,-0.6353621142063955,0.8664686370668302,1.4179292679161932,0.21252197894515645,0.44930474257547265,0.1007272456334728,-0.41696694884428753,0.3444124131670862,-0.4936520274818674,0.42697945658648295,0
0.3675954949988392,-0.4048655844423516,0.2520035545675377,-0.6697823096770567,-0.5924545428573552,0.8664686370668302,1.2244324958656028,0.07060990831399988,0.2997796253222547,0.2348122154702536,-0.11963118588009665,0.8264555177557268,-0.30062947899236325,0.6567929871930076,0
0.4477244536202907,-0.3086301251877184,0.0631541754755524,-0.8223834210130929,-0.4653821200160761,0.9526087939681691,1.0956440599228536,0.17721702478812504,0.48650367418482243,0.4029089825338912,0.2973357629641909,1.1359567311475631,-0.021353904496680315,0.7387320733145343,0
0.415610513005472,-0.23156657383146062,0.0,-0.7000650204869372,-0.21206241993640132,0.7794839688232256,1.4499693178336757,0.9227745861039702,1.9080863743140548,1.3081460471879893,0.8037357342626041,1.342738452893095,0.2147951569958942,1.0178370854160486,0
0.3357933402152109,-0.2507384817298532,0.09442468954599265,-0.39605035510160613,-0.4653821200160761,0.6933438119218865,1.6755061398017486,1.5264200767885958,2.5813140973613784,2.180679460662388,0.9227861862307014,1.3084986223443065,0.34375599199543355,1.1820353322143005,0
0.2556643815937594,-0.38569367654395903,0.0631541754755524,-0.6697823096770567,-0.7195269656986343,0.9095387155174612,1.3858892179987394,1.064686656735064,1.085333534013513,1.5769700598851593,0.2677183334502192,0.6888248263341724,0.10760693050282098,0.7880235548095239,0
0.20764936358712666,-0.48230505556131387,0.03188366140511213,-0.7309415099401615,-0.29622727142871513,0.9965233837610659,1.2244324958656028,0.3904312577363753,0.5988298598286906,0.6377211980041448,0.02961742951402451,0.5511941349126179,-0.10718822649311129,0.6567929871930076,0
0.1917482861953125,-0.44358532000182416,0.09442468954599265,-0.27432573321879417,-0.169154848587436,1.0395934622117737,1.289140831973444,0.7095603531557199,1.5339088857731005,0.9058911376777065,0.6248696893544584,0.9983260397260088,-0.1285421309897916,0.8536388386177967,0
0.22386222681013115,-0.38569367654395903,0.1263083509511048,-0.3651738656483819,-0.5503721171112733,0.8233985586161222,1.030935723815012,0.8161674696298451,0.9730073483696449,1.0399761075144873,0.5360174008124378,0.9298463786284927,-0.23614906149261258,0.623825308011272,0
0.2556643815937594,-0.4048655844423516,0.1263083509511048,-0.8223834210130929,-0.7195269656986343,0.5632890652276508,0.7092787520945493,0.03530495415696846,-0.22392298047191747,0.2688240126971699,-0.08943302245407284,0.5511941349126179,-0.3433372879857239,0.5252423450212929,0
0.2556643815937594,-0.4244134121034487,0.0631541754755524,-0.7915069315598686,-0.6353621142063955,0.3031795718391794,0.8380671880372983,-0.21321423294825032,0.2997796253222547,-0.03335772420330801,0.08885228854207353,0.6888248263341724,-0.21437645298622257,0.8699626409310798,0
0.28777832220857813,-0.2507384817298532,0.534664475870788,-0.3651738656483819,-0.33913484277768047,-0.08614015690141581,0.9021472878722631,0.3191290954192816,1.2348586512666646,0.8051638920442337,0.47620180787233657,1.1359567311475631,-0.06406171349004094,0.8866065177995031,0
0.3195804769922064,-0.26991038962822866,0.9123632340547586,-0.5177749769844181,-0.25414484568255824,0.0,0.966855623980076,0.0,0.22465237128773632,0.9732606591078712,0.2084834744221702,1.1359567311475631,-0.19302254848954226,0.7387320733145343,0
0.3675954949988392,-0.44358532000182416,0.534664475870788,-0.5177749769844181,-0.6353621142063955,0.39016424008270717,1.0636040100053712,-0.8874696319470018,-0.7476255862660234,0.2014544912669456,0.02961742951402451,0.8264555177557268,-0.3864638009887942,0.9522218016077758,0
0.4477244536202907,-0.3086301251877184,0.4402397863247953,-0.030282710809880566,-0.42329969426999425,0.6933438119218865,0.9348155740626222,-0.63895044484172,0.18745343967838657,0.2348122154702536,0.2084834744221702,0.8606953483044544,-0.21437645298622257,0.9355779247393525,0
0.4477244536202907,-0.07743947111896227,0.534664475870788,-0.1828838221458628,0.2533197000797498,0.9526087939681691,0.8701072379547807,0.17721702478812504,1.0474052115882782,0.9732606591078712,0.14866788148212184,0.8956065480797041,0.0,0.6894405918195448,0
0.2556643815937594,-0.057891643457865155,0.1888493790919853,-0.5783403986041252,0.169154848587436,1.2997029556002453,1.192392445948149,0.42573621189340677,0.9730073483696449,1.241430598781433,0.14866788148212184,0.723064656882961,0.021772608506390023,0.6894405918195448,0
0.1599461314116842,-0.057891643457865155,-0.03127051407044026,-0.24344924376562393,-0.38121726852383736,0.9965233837610659,1.4499693178336757,0.532343328367532,1.0102062799789282,0.9392488618810144,0.4465843783583649,0.8264555177557268,0.10760693050282098,0.6731167895062616,0
0.22386222681013115,-0.1545030224752029,0.0631541754755524,-0.06115920026305083,-0.42329969426999425,0.4332343185334151,1.289140831973444,0.532343328367532,1.0102062799789282,0.8051638920442337,0.4169669488443404,0.9640862091772202,0.10760693050282098,0.5908576288295656,0
0.1599461314116842,-0.3086301251877184,0.2520035545675377,-0.42633306591148673,-0.04290757134896533,0.6063591436783587,1.289140831973444,0.532343328367532,1.1225324656227964,1.0399761075144873,0.2677183334502192,0.6545849957853838,-0.06406171349004094,0.7057643941328279,0
0.1437332681886797,-0.21239466593308515,0.7547843690332136,-0.24344924376562393,-0.12707242284127912,0.9965233837610659,1.5787577537764532,1.0293817025780954,1.8329591202795363,1.3755155686182137,0.3275339263902675,0.5854339654614065,-0.10718822649311129,0.8373150363045134,0
0.28777832220857813,-0.038719735559472584,0.7860548831036538,0.24344924376562393,-0.42329969426999425,1.0826635406624048,1.610797803693907,0.8874696319469388,1.609036139807619,1.44223101702477,0.5656348303264622,1.1017169005987746,0.15031473949614355,0.8699626409310798,0
0.28777832220857813,-0.07743947111896227,0.09442468954599265,0.06115920026305083,-0.12707242284127912,0.7364138903725944,1.2244324958656028,-0.07130216231715669,0.7111560454725587,1.4088732928214622,0.7741183047485796,1.2393475920203292,0.3651098964920758,0.9355779247393525,0
0.1437332681886797,-0.26991038962822866,0.03188366140511213,-0.5177749769844181,-0.04290757134896533,0.34624965028988725,0.9988956738975584,-0.3551263035794069,0.3369785569316045,0.8725334134743984,0.505819237386361,0.7573044874316884,0.10760693050282098,0.607501505698018,0
0.0,-0.4627572279002167,0.28327406863797794,-0.7612242207499881,-0.5503721171112733,0.26010949338847145,0.8701072379547807,-0.4264284658965636,-0.2618513028970861,-0.10007317260986452,-0.297916496876243,0.3101725826182976,-0.4078177054854745,0.09858296298997916,0
-0.048015018006632805,-0.3665217686455835,0.1263083509511048,-0.27432573321879417,-0.4653821200160761,0.3031795718391794,0.7413188020120031,-0.7815547694759075,-0.33624916611578565,-0.10007317260986452,-0.47678254178438867,0.3444124131670862,-0.5581324449816562,0.26278120978823105,0
0.0639160953984186,-0.11578328691573031,0.09442468954599265,0.27432573321879417,-0.25414484568255824,0.39016424008270717,0.8053989018469393,-0.284516395265407,0.5616309282193408,0.7718061678409256,0.08885228854207353,0.6196737960101951,-0.3433372879857239,0.7387320733145343,0
0.0639160953984186,-0.19284683827198806,0.1888493790919853,-0.12172462188281197,-0.7616093914447912,0.3031795718391794,0.9021472878722631,0.24851918710521878,0.7111560454725587,0.7718061678409256,0.11905045196809735,0.5511941349126179,-0.3433372879857239,0.6401491103245551,0
-0.016212863223032864,-0.44358532000182416,0.09442468954599265,-0.7612242207499881,-0.9307642400322272,0.3031795718391794,1.0636040100053712,0.21252197894515645,0.7483549770818422,0.3355394611037264,-0.297916496876243,0.3444124131670862,-0.4936520274818674,0.41033557971803053,0
0.048015018006632805,-0.4048655844423516,0.2520035545675377,-0.6394995988672301,-0.7195269656986343,0.6494292221289898,1.4499693178336757,0.5676482825245633,1.2348586512666646,0.8725334134743984,-0.11963118588009665,0.5162829351374292,-0.42917160998211673,0.6731167895062616,0
0.1119311134050514,-0.26991038962822866,0.4402397863247953,-0.24344924376562393,-0.8045169627938316,0.8233985586161222,1.4499693178336757,0.7455575613157822,0.93507902594441,1.14070335314796,0.2381009039361947,0.9640862091772202,-0.3864638009887942,0.8536388386177967,0
0.1119311134050514,-0.34734986074719093,0.2520035545675377,-0.3348911548385553,-0.9307642400322272,0.34624965028988725,0.8053989018469393,0.17721702478812504,0.5616309282193408,0.603709400777288,0.3275339263902675,0.9298463786284927,-0.17166864399286194,0.6567929871930076,0
0.1119311134050514,-0.38569367654395903,0.03188366140511213,-0.39605035510160613,-0.8045169627938316,-0.043070078450707906,0.45107364393611726,-0.21321423294825032,0.5988298598286906,0.503636228167364,0.2677183334502192,0.6196737960101951,0.08625302600614068,0.4596270612130201,0
0.0639160953984186,-0.21239466593308515,0.09442468954599265,-0.21316653295574337,-0.7195269656986343,0.34624965028988725,0.7092787520945493,-0.284516395265407,0.22465237128773632,0.6710789222074528,0.2973357629641909,0.6888248263341724,0.021772608506390023,0.4596270612130201,0
0.0,-0.3086301251877184,0.03188366140511213,-0.45661577672131326,-0.8465993885399885,0.3031795718391794,0.612530366069254,-0.6036454906846886,-0.1867240488625677,0.4029089825338912,0.11905045196809735,0.6196737960101951,-0.17166864399286194,0.5745338265162824,0
-0.11193111340507976,-0.578540514815947,-0.1256952036164329,-0.7309415099401615,-1.4390539313973436,-0.4332343185334151,0.22553682196804434,-0.8168597236329389,-0.22392298047191747,-0.1340849698367808,-0.238681637848194,0.3101725826182976,-0.19302254848954226,0.6567929871930076,0
-0.1758472088035267,-0.5398207792564573,-0.1256952036164329,-0.5177749769844181,-1.8623536256673379,-0.5193744754347541,0.354325257910822,-0.7102526071588138,0.11232618564386816,-0.1340849698367808,-0.11963118588009665,0.5511941349126179,-0.19302254848954226,0.7550558756278175,0
0.07981717279023275,-0.23156657383146062,0.1263083509511048,-0.15200733269269254,-1.4390539313973436,-0.21619490359565152,0.6445704159867078,-0.5683405365276571,0.2618513028970861,0.034011797226916274,0.2973357629641909,1.0332372395012586,-0.17166864399286194,0.9355779247393525,0
0.20764936358712666,-0.1545030224752029,0.34642824411353035,-0.21316653295574337,-1.1007442342225466,-0.6494292221289898,0.258205108158432,-0.5683405365276571,-0.411376420150304,0.1340849698367808,0.17828531099614636,0.9298463786284927,-0.17166864399286194,0.9029303201127862,0
-0.23976330420197367,-0.5014769634596893,-0.15696571768687317,-0.6394995988672301,-1.6502912057309365,-1.471983269403,-0.22553682196807293,-0.5330355823706887,-0.5981004690128054,0.034011797226916274,-0.38734951933031586,0.3101725826182976,-0.4936520274818674,0.3613641727782102,0
-0.5596555670253988,-0.7326676175284454,-0.8485959112445344,-0.9132315534426806,-1.693198777079902,-0.9956788724188771,0.12941667221565434,-0.14260432463425043,0.22465237128773632,-0.2348122154702536,-0.5063999712983603,0.034239830548788576,-0.815635410970911,0.06561528380827272,0
-0.33579334021523927,-0.34734986074719093,-0.9117500867201425,-0.6394995988672301,-0.7195269656986343,0.26010949338847145,0.612530366069254,-0.3551263035794069,0.03792832242516864,0.034011797226916274,-0.26829906736221854,0.13763069142155446,-0.5794863494782984,0.42697945658648295,0
-0.11193111340507976,-0.038719735559472584,-0.6284760180821087,-0.27432573321879417,-0.8465993885399885,0.4332343185334151,0.3222852079933682,-0.9587717942640955,-0.7104266546567399,0.2014544912669456,-0.3281146603022668,0.10339086087276587,-0.2788568704859732,0.5089185427080097,0
-0.14404505401992676,-0.09661137901733774,-0.28266092130330606,0.0,-1.6502912057309365,-0.34624965028988725,0.06470833610781289,-0.8874696319470018,-0.14952511725321793,-0.10007317260986452,-0.38734951933031586,0.13763069142155446,-0.3646911924823661,0.3447202959097869,0
0.01590107739178579,-0.038719735559472584,0.15757886502154503,0.24344924376562393,-1.3540639343022214,-0.47630439698412297,0.2902451580758858,-0.5330355823706887,0.5237026057941059,0.1007272456334728,0.02961742951402451,0.48204310458864064,-0.21437645298622257,0.6401491103245551,0
0.1917482861953125,0.07706355135625774,0.2520035545675377,0.15200733269269254,-0.8465993885399885,-0.21619490359565152,0.6766104659041902,-0.461733420053532,0.2997796253222547,0.7384484436376176,0.38676878541826376,0.8264555177557268,0.08625302600614068,0.7716997524962408,0
0.17584720880349836,-0.11578328691573031,0.09442468954599265,0.0,-0.8045169627938316,-0.17312482514494362,0.8380671880372983,-0.31982134942243845,0.3369785569316045,0.3021817369004184,0.08885228854207353,0.7573044874316884,-0.10718822649311129,0.5908576288295656,0
0.01590107739178579,-0.2507384817298532,-0.09381154221132078,0.0,-0.8045169627938316,0.17312482514494362,0.9021472878722631,-0.284516395265407,0.5988298598286906,-0.2348122154702536,-0.5063999712983603,0.24102155229432032,-0.47229812298522517,0.5582100242030283,0
-0.1278321907968939,-0.21239466593308515,-0.4402397863248511,-0.12172462188281197,-0.8045169627938316,0.6063591436783587,0.966855623980076,-0.31982134942243845,0.7111560454725587,0.503636228167364,-0.41696694884428753,-0.10339086087276587,-0.4078177054854745,0.47627093808147253,0
-0.016212863223032864,-0.19284683827198806,-0.3770856108492987,-0.24344924376562393,-0.9736718113812676,0.13005474669423572,0.6445704159867078,-0.07130216231715669,0.785553908691192,1.2080728745781248,0.11905045196809735,0.20678172174553175,-0.10718822649311129,0.3940117774047765,0
0.2397633042019453,-0.13495519481410578,0.0,-0.12172462188281197,-1.0578366628735063,-0.26010949338847145,0.2902451580758858,-0.24851918710528173,0.2997796253222547,0.8385216162475416,0.05923485902804902,0.48204310458864064,0.021772608506390023,0.5418862218897452,0
0.27187724481676395,-0.09661137901733774,0.09442468954599265,0.030282710809880566,-1.2698990828099077,-0.08614015690141581,0.354325257910822,-0.9587717942640955,-0.33624916611578565,0.1007272456334728,-0.2084834744221702,0.4135634434910635,0.021772608506390023,0.607501505698018,0
0.2556643815937594,-0.038719735559472584,0.0631541754755524,0.12172462188281197,-1.1007442342225466,0.043070078450707906,0.354325257910822,-0.8168597236329389,0.22465237128773632,0.4362667067371992,0.2084834744221702,0.7573044874316884,0.1289608349995013,0.7880235548095239,0
0.415610513005472,0.11540736715302578,0.2520035545675377,0.3651738656483819,-0.33913484277768047,0.13005474669423572,0.2902451580758858,0.0,1.085333534013513,1.2080728745781248,0.6846852822945068,1.342738452893095,0.3651098964920758,1.0504846900425857,0
0.3675954949988392,0.09623545925463321,0.2201198931623698,0.39605035510160613,0.0,0.34624965028988725,0.2902451580758858,-0.24851918710528173,0.5988298598286906,0.9058911376777065,0.47620180787233657,1.274258791795579,0.30062947899232517,0.8206711594360901,0
0.12783219079686556,-0.038719735559472584,-0.03127051407044026,0.15200733269269254,-0.21206241993640132,0.5632890652276508,0.258205108158432,-1.0653789107382206,-0.14952511725321793,0.3021817369004184,-0.030198163426023817,0.7573044874316884,-0.10718822649311129,0.47627093808147253,0
0.12783219079686556,-0.11578328691573031,-0.06254102814088051,0.21316653295574337,-0.33913484277768047,0.5202189867769429,0.3222852079933682,-0.8168597236329389,0.3369785569316045,0.6377211980041448,-0.3281146603022668,0.5162829351374292,-0.3864638009887942,0.47627093808147253,0
0.1437332681886797,-0.32780203308609385,0.0,0.1828838221458628,-0.5924545428573552,0.26010949338847145,0.5157819800439587,-0.14260432463425043,0.8234822311164269,0.7044366464107609,-0.38734951933031586,0.5162829351374292,-0.3646911924823661,0.41033557971803053,0
-0.032113940614847014,-0.5014769634596893,0.0,0.0,-0.7195269656986343,0.17312482514494362,0.7092787520945493,-0.03599720816012528,0.1502545080690368,-0.10007317260986452,-0.3281146603022668,0.6888248263341724,-0.32198338348904354,0.3120726912832206,0
-0.016212863223032864,-0.32780203308609385,-0.09381154221132078,0.12172462188281197,-0.6353621142063955,0.26010949338847145,0.8053989018469393,-0.31982134942243845,-0.5237026057941722,-0.10007317260986452,-0.47678254178438867,0.8606953483044544,-0.47229812298522517,0.47627093808147253,0
0.12783219079686556,-0.038719735559472584,0.0,0.3651738656483819,-0.8465993885399885,0.0,0.7092787520945493,-0.8521646777899703,-0.6352994006221552,0.4029089825338912,-0.5958329937524333,0.5511941349126179,-0.5367785404849759,0.5252423450212929,0
0.048015018006632805,-0.057891643457865155,0.0,0.30460844402867476,-0.8465993885399885,-0.38931972874051834,0.45107364393611726,-1.4911151226316275,-0.7476255862660234,0.1007272456334728,-0.7148834457205305,-0.034239830548788576,-0.5150059319785477,0.3776879750914934,0
-0.06391609539844695,-0.26991038962822866,-0.5340513285361161,0.0914419110729314,-0.38121726852383736,-0.043070078450707906,0.5478220299614125,-1.5271123307917527,-0.6732277230473901,-0.33488538808011814,-0.6852660162065589,-0.034239830548788576,-0.4936520274818674,0.3283964935965038,0
-0.11193111340507976,-0.3665217686455835,-0.8798664253149746,-0.0914419110729314,-0.25414484568255824,0.26010949338847145,0.7092787520945493,-0.8521646777899703,0.1502545080690368,0.1340849698367808,-0.238681637848194,0.4135634434910635,-0.30062947899236325,0.4596270612130201,0
0.07981717279023275,-0.057891643457865155,-0.31393143537374635,0.1828838221458628,-0.08498999709512221,0.26010949338847145,0.5157819800439587,-0.07130216231715669,1.0102062799789282,1.14070335314796,0.2381009039361947,0.8264555177557268,0.06448041749975066,0.9192541224260693,0
0.415610513005472,0.19247091850926643,0.03188366140511213,0.6394995988672301,0.29622727142871513,0.26010949338847145,0.41903359401866347,0.03530495415696846,0.673957113863209,1.509600538454935,0.505819237386361,1.170867930922813,0.4727168269949349,1.2802982206491103,0
0.3357933402152109,0.0,-0.565934989941284,0.5177749769844181,0.0,0.21703941493776355,0.3222852079933682,-0.6749476530017824,-0.29905023450643586,1.0066183833111793,0.2677183334502192,0.8606953483044544,0.5154246359882574,0.8866065177995031,0
-0.08012895862147981,-0.11578328691573031,-1.006174776266135,0.0914419110729314,-0.5082896913651165,-0.043070078450707906,0.0,-1.278593143686471,-0.7848245178753731,0.2688240126971699,-0.297916496876243,0.0,-0.08583432199643097,0.22981353060652462,0
-0.19206007202655956,0.11540736715302578,-1.006174776266135,0.030282710809880566,-0.25414484568255824,-0.08614015690141581,0.0,-1.3492030520005338,-0.6732277230473901,-0.06671544840655652,-0.6254504232664577,-0.3444124131670862,-0.6653206714747293,0.3283964935965038,0
0.0639160953984186,0.44320940023911964,-0.943020600790527,0.3651738656483819,0.29622727142871513,0.34624965028988725,0.2902451580758858,-1.171986027212346,-0.1867240488625677,0.034011797226916274,-0.5662155642384615,0.17254189119674315,-0.5150059319785477,0.8373150363045134,0
0.3838083582218437,0.6744000543078758,-0.9117500867201425,0.7309415099401615,0.5495469715083898,0.9095387155174612,0.3869935441011811,-0.8521646777899703,0.3369785569316045,0.4029089825338912,-0.4471651122703642,0.723064656882961,-0.32198338348904354,0.8866065177995031,0
0.415610513005472,0.7322916977657409,-0.7860548831037095,1.004673464515612,0.4653821200161511,1.0826635406624048,0.5157819800439587,-0.07130216231715669,1.1225324656227964,0.8725334134743984,-0.08943302245407284,0.6888248263341724,-0.2575029659892929,0.7387320733145343,0
0.27187724481676395,0.6552281464095002,-0.408356124919739,1.0355499539687822,0.12707242284127912,0.5632890652276508,0.7092787520945493,0.5676482825245633,1.5339088857731005,1.2747883229846813,0.2677183334502192,0.5854339654614065,-0.04270780899336063,0.9029303201127862,0
0.3838083582218437,0.5973365029516351,0.15757886502154503,1.004673464515612,0.04208242574615689,0.34624965028988725,0.6766104659041902,0.3904312577363753,1.196930328841496,1.107345628944652,0.2381009039361947,0.9983260397260088,0.0,1.0997761715375753,0
0.5914577218089704,0.44320940023911964,0.31454458270836244,0.9441080428958508,0.04208242574615689,0.7364138903725944,0.7092787520945493,0.21252197894515645,1.0474052115882782,0.6377211980041448,-0.030198163426023817,1.342738452893095,-0.10718822649311129,0.9522218016077758,0
0.2556643815937594,0.2503625619671487,-0.31393143537374635,0.7915069315598686,-0.04290757134896533,0.7364138903725944,0.8380671880372983,0.1059148624710313,0.8234822311164269,0.3688971853070344,-0.2084834744221702,0.7922156872069382,-0.3433372879857239,0.5252423450212929,0
-0.09603003601329396,0.26953446986552415,-0.8798664253149746,0.8526661318229194,-0.04290757134896533,0.34624965028988725,0.8380671880372983,-0.7102526071588138,-0.4485753517596538,0.2348122154702536,-0.3281146603022668,0.0,-0.6226128624814068,0.1641982467982519,0
0.0639160953984186,0.2503625619671487,-0.8798664253149746,1.0355499539687822,0.2112372743335929,0.26010949338847145,0.7092787520945493,-1.3845080061575024,-1.2341292604508458,0.2688240126971699,-0.5365981347244371,-0.24102155229432032,-0.7084471844777996,0.21348972829324148,0
0.3675954949988392,0.32742611332338933,-0.34581509677885847,1.065832664778663,0.3803921229210289,0.5202189867769429,0.5798620798788949,-0.8874696319470018,-0.33624916611578565,0.3688971853070344,-0.6852660162065589,-0.06847966109751609,-0.643966766978049,0.5908576288295656,0
0.4636255310121048,0.5202729515953773,0.0,0.8829488426328,0.3803921229210289,0.7794839688232256,0.4837419301264763,-0.31982134942243845,0.2997796253222547,0.3021817369004184,-0.26829906736221854,0.2752613828431089,-0.5794863494782984,0.7880235548095239,0
0.3675954949988392,0.38531775678125446,-0.34581509677885847,0.5177749769844181,0.2533197000797498,0.8664686370668302,0.2902451580758858,-0.5683405365276571,-0.29905023450643586,0.2348122154702536,-0.2084834744221702,0.5162829351374292,-0.5581324449816562,0.607501505698018,0
0.2397633042019453,0.09623545925463321,-0.8173253971741499,0.21316653295574337,-0.08498999709512221,0.9095387155174612,0.22553682196804434,-0.5683405365276571,-0.5237026057941722,0.0,-0.9233669201427007,0.10339086087276587,-0.7942815064742307,0.3283964935965038,0
0.1917482861953125,0.15412710271249838,-0.8173253971741499,0.12172462188281197,-0.29622727142871513,1.1257336191131129,0.354325257910822,0.03530495415696846,0.3741774885409543,-0.5696976035503717,-1.1022329650508464,-0.4128920742646023,-1.1380374984696642,0.21348972829324148,0
0.3357933402152109,0.366145848882879,-0.6603596794872767,0.21316653295574337,-0.25414484568255824,0.9526087939681691,0.4837419301264763,-0.07130216231715669,0.5616309282193408,-0.7044366464107014,-0.9233669201427007,0.034239830548788576,-1.0517844724635235,0.3447202959097869,0
0.3516944176070251,0.2503625619671487,-0.8485959112445344,0.12172462188281197,-0.21206241993640132,0.4332343185334151,0.8053989018469393,-0.6036454906846886,-0.2618513028970861,-0.06671544840655652,-1.042417372110798,0.5162829351374292,-0.7942815064742307,0.49259474039475565,0
0.1917482861953125,0.05751572369516063,-0.9117500867201425,-0.3651738656483819,-0.08498999709512221,0.6494292221289898,1.0956440599228536,-0.63895044484172,-0.22392298047191747,0.3355394611037264,-0.8641320611147045,0.3444124131670862,-0.7084471844777996,0.42697945658648295,0
0.1119311134050514,-0.038719735559472584,-1.0374452903365197,-0.5177749769844181,0.169154848587436,0.8664686370668302,1.0636040100053712,-0.6749476530017824,0.0751272540345184,0.1007272456334728,-0.5958329937524333,-0.13763069142155446,-0.815635410970911,0.09858296298997916,0
0.12783219079686556,0.03834381579676806,-1.4145309011858183,0.0,0.3803921229210289,0.6063591436783587,0.8053989018469393,-1.278593143686471,-0.48577428336893724,0.06736952143022429,-0.6556485866925343,-0.37865224371587475,-0.7511549934711603,0.016643876868452406,0
0.20764936358712666,0.15412710271249838,-1.2888356975693855,-0.030282710809880566,0.169154848587436,0.5202189867769429,0.7733588519294855,-1.4205052143176276,-0.5237026057941722,0.3355394611037264,-0.38734951933031586,-0.13763069142155446,-0.5150059319785477,0.3283964935965038,0
0.1599461314116842,-0.057891643457865155,-1.1631404939529526,-0.6394995988672301,-0.169154848587436,0.34624965028988725,0.966855623980076,-0.923466840107064,-0.1867240488625677,0.2688240126971699,-0.2084834744221702,0.24102155229432032,-0.3433372879857239,0.49259474039475565,0
0.01590107739178579,-0.21239466593308515,-1.634650794348244,-0.9441080428958508,-0.42329969426999425,0.17312482514494362,0.9021472878722631,-0.8168597236329389,-0.48577428336893724,-0.06671544840655652,-0.5958329937524333,-0.10339086087276587,-0.5150059319785477,0.3447202959097869,0
-0.11193111340507976,-0.07743947111896227,-1.6978049698237963,-0.9441080428958508,-0.42329969426999425,0.5202189867769429,0.7733588519294855,-1.0653789107382206,-0.7104266546567399,-0.10007317260986452,-0.7746990386606317,-0.6196737960101341,-0.7942815064742307,0.3120726912832206,0
0.0,0.11540736715302578,-1.1318699798825123,-0.6697823096770567,-0.33913484277768047,0.47630439698412297,0.5798620798788949,-1.171986027212346,-0.48577428336893724,0.034011797226916274,-0.6852660162065589,-0.48204310458864064,-0.7729276019775503,0.41033557971803053,0
0.30367939960039225,0.26953446986552415,-0.7541712216985417,-0.0914419110729314,-0.169154848587436,-0.08614015690141581,0.5798620798788949,-1.0300739565811892,0.3369785569316045,0.3355394611037264,-0.35773208981629134,-0.034239830548788576,-0.4509442184885449,0.5252423450212929,0
0.6394727398156032,0.6939478819689728,-0.2513904072328658,0.30460844402867476,0.08416485149231379,0.26010949338847145,0.8380671880372983,-0.7102526071588138,0.9730073483696449,0.8051638920442337,0.11905045196809735,0.723064656882961,-0.1285421309897916,0.7550558756278175,0
0.9113499846323955,1.1563291901064852,0.28327406863797794,0.3348911548385553,0.507464545762308,1.2127182873566407,0.966855623980076,-0.4264284658965636,0.5616309282193408,0.6377211980041448,0.4169669488443404,1.5495201746386267,0.06448041749975066,1.0178370854160486,0
0.9911671574226566,1.0409218229534594,0.28327406863797794,0.3348911548385553,0.4653821200161511,1.1696482089060094,0.9988956738975584,-0.24851918710528173,0.3369785569316045,0.6710789222074528,0.505819237386361,1.6529110355113925,0.17208734800257164,1.1164200484060276,0
0.8792360440175768,0.5973365029516351,0.15757886502154503,0.27432573321879417,-0.21206241993640132,0.47630439698412297,0.9348155740626222,0.1059148624710313,0.7483549770818422,1.2080728745781248,0.2973357629641909,1.2393475920203292,0.04312651300307034,1.1164200484060276,0
0.6715866804304502,0.4819291357986093,0.0,0.1828838221458628,-0.38121726852383736,0.08698466824352782,0.7092787520945493,0.07060990831399988,0.5616309282193408,0.9392488618810144,-0.11963118588009665,0.723064656882961,-0.23614906149261258,0.8699626409310798,0
0.4315115903972578,0.42403749234074417,-0.6284760180821087,-0.12172462188281197,-0.25414484568255824,0.26010949338847145,0.5157819800439587,-0.63895044484172,-0.14952511725321793,0.16809676706369708,-0.41696694884428753,0.10339086087276587,-0.32198338348904354,0.5089185427080097,0
0.1437332681886797,0.07706355135625774,-1.0374452903365197,-0.7915069315598686,-0.5082896913651165,0.7364138903725944,0.6766104659041902,-1.0653789107382206,-0.37344809772506904,0.3021817369004184,-0.4471651122703642,-0.10339086087276587,-0.42917160998211673,0.42697945658648295,0
-0.016212863223032864,-0.1545030224752029,-1.006174776266135,-1.004673464515612,-0.6774445399525525,0.7794839688232256,0.8380671880372983,-0.8168597236329389,-0.411376420150304,0.6377211980041448,-0.41696694884428753,0.0,-0.5150059319785477,0.5582100242030283,0
0.1119311134050514,-0.038719735559472584,-0.943020600790527,-0.8223834210130929,-0.5082896913651165,0.26010949338847145,0.5798620798788949,-0.6036454906846886,0.11232618564386816,0.3021817369004184,-0.297916496876243,0.06915103032397729,-0.4509442184885449,0.6401491103245551,0
0.30367939960039225,0.05751572369516063,-0.7541712216985417,-0.8223834210130929,-0.21206241993640132,-0.08614015690141581,0.354325257910822,-0.6749476530017824,0.673957113863209,0.57035167657398,-0.059815592940048325,0.3444124131670862,-0.2575029659892929,0.7057643941328279,0
0.3357933402152109,0.13495519481412288,-0.6603596794872767,-0.5480576877942447,-0.04290757134896533,0.26010949338847145,0.3869935441011811,-0.5683405365276571,0.48650367418482243,1.2747883229846813,0.02961742951402451,0.5511941349126179,-0.10718822649311129,0.804347357122807,0
0.4477244536202907,0.40448966467964703,-0.8485959112445344,-0.030282710809880566,0.12707242284127912,0.9095387155174612,0.45107364393611726,-0.24851918710528173,0.5237026057941059,1.4762428142516864,0.17828531099614636,0.5854339654614065,0.08625302600614068,1.0504846900425857,0
0.6874877578222359,0.7710114333252306,-0.6284760180821087,0.1828838221458628,0.169154848587436,1.0395934622117737,0.5157819800439587,0.0,0.8606811627257767,1.4088732928214622,0.47620180787233657,0.7922156872069382,0.40823640949518425,1.2802982206491103,0
0.7994188712273157,0.8093552491219986,0.0,0.21316653295574337,-0.169154848587436,0.8233985586161222,0.8380671880372983,0.03530495415696846,1.1225324656227964,1.542958262658243,0.6248696893544584,1.1017169005987746,0.4727168269949349,1.1820353322143005,0
0.6715866804304502,0.6552281464095002,0.2201198931623698,0.21316653295574337,-0.29622727142871513,0.8233985586161222,1.030935723815012,0.03530495415696846,1.2720575828760143,1.542958262658243,0.4465843783583649,1.3084986223443065,0.2147951569958942,1.0834523692243212,0
0.6235716624238173,0.5394448594937529,-0.03127051407044026,0.06115920026305083,0.04208242574615689,1.3427730340508763,0.966855623980076,0.1059148624710313,1.196930328841496,1.0733338317177357,0.17828531099614636,1.2393475920203292,0.06448041749975066,1.0997761715375753,0
0.5914577218089704,0.32742611332338933,-0.4402397863248511,-0.030282710809880566,0.2112372743335929,1.6459526058900558,1.2564725457830852,0.3904312577363753,0.8606811627257767,0.8725334134743984,-0.17886604490814567,0.7573044874316884,-0.021353904496680315,0.9192541224260693,0
0.5914577218089704,0.3469739409844864,-0.3770856108492987,0.0914419110729314,0.2533197000797498,1.2997029556002453,1.2564725457830852,0.14191207063109362,0.22465237128773632,1.0733338317177357,-0.11963118588009665,0.7573044874316884,-0.08583432199643097,1.0178370854160486,0
0.8792360440175768,0.6939478819689728,0.1888493790919853,0.12172462188281197,0.5495469715083898,0.9095387155174612,0.8701072379547807,-0.6749476530017824,0.0,1.3755155686182137,0.5360174008124378,1.342738452893095,0.19344125249925195,1.3295897021440999,0
1.0073800206456611,0.8289030767830957,0.4402397863247953,0.24344924376562393,0.6345369686035871,0.7364138903725944,1.0956440599228536,-0.8168597236329389,0.22465237128773632,1.542958262658243,0.744500875234608,1.7213906966089698,0.34375599199543355,1.247650616022573,0
0.7192899126058643,0.55899268715485,0.2201198931623698,0.27432573321879417,0.169154848587436,0.6063591436783587,1.4499693178336757,-0.5330355823706887,0.11232618564386816,1.241430598781433,0.17828531099614636,1.2393475920203292,-0.04270780899336063,0.8373150363045134,0
0.3838083582218437,0.17329901061089095,-0.15696571768687317,-0.1828838221458628,-0.42329969426999425,0.6494292221289898,1.3211808818908979,-0.5683405365276571,-0.1867240488625677,0.4696244309405072,-0.38734951933031586,0.24102155229432032,-0.4936520274818674,0.3447202959097869,0
0.1119311134050514,-0.1545030224752029,-0.6284760180821087,-0.8829488426328,-0.8465993885399885,1.1257336191131129,1.546717703858971,-0.6036454906846886,-0.6352994006221552,-0.20080041824333733,-0.6852660162065589,-0.37865224371587475,-0.8374080194773009,0.19716592597995833,0
0.0957182501820469,-0.19284683827198806,-0.6916301935577169,-1.065832664778663,-1.0157542371273494,1.2557883658073485,2.0298313977125706,-0.6749476530017824,-1.196930328841496,-0.4022549095102829,-0.6254504232664577,-0.034239830548788576,-0.923242341473732,0.6401491103245551,0
0.5275416264105234,0.15412710271249838,0.0,-0.6697823096770567,-0.7195269656986343,0.39016424008270717,1.6434660898842661,-0.923466840107064,-0.6352994006221552,0.034011797226916274,-0.030198163426023817,0.723064656882961,-0.32198338348904354,1.1820353322143005,0
0.9431521394160237,0.55899268715485,0.47212344772996323,0.030282710809880566,0.2112372743335929,-0.13005474669423572,0.9021472878722631,-0.7102526071588138,0.8978800943350601,1.2080728745781248,0.7143027118085312,1.1017169005987746,0.34375599199543355,1.3295897021440999,0
0.9593650026390282,0.9059666281393364,0.4089692722543551,0.5177749769844181,1.014929091524541,0.47630439698412297,0.9021472878722631,-0.17790927879128185,1.4215827001292323,2.079952215028915,0.893168756716677,1.1359567311475631,0.4509442184885068,1.2310067391541206,0
0.831221026010944,0.8867947202409608,0.2520035545675377,0.45661577672131326,0.8036918171909481,1.0826635406624048,1.1276841098403074,-0.24851918710528173,0.673957113863209,1.8784977237619693,0.47620180787233657,0.8606953483044544,0.2579216699990026,0.9685456039210589,0
0.39970943561365785,0.40448966467964703,-0.565934989941284,-0.24344924376562393,0.04208242574615689,0.9526087939681691,1.0636040100053712,-0.6036454906846886,-0.03719893160934976,0.7384484436376176,-0.5063999712983603,0.034239830548788576,-0.32198338348904354,0.49259474039475565,0
-0.1278321907968939,-0.038719735559472584,-1.5721097662073633,-0.9743907537057314,-0.42329969426999425,0.6933438119218865,0.7092787520945493,-0.9940767484211269,-0.560901537403522,-0.5029821551437558,-1.2509008465329683,-0.6539136265589226,-1.116264889963274,0.09858296298997916,0
-0.15994613141171254,-0.11578328691573031,-1.5721097662073633,-1.0961153755885433,-0.33913484277768047,0.6494292221289898,0.41903359401866347,-1.4205052143176276,-1.0094768891631094,-0.7377943706140093,-1.1916659875049194,-0.5162829351373681,-1.309706142462526,0.1641982467982519,0
0.12783219079686556,0.03834381579676806,-0.943020600790527,-0.7612242207499881,0.08416485149231379,0.5632890652276508,0.5157819800439587,-1.4911151226316275,-1.1218030748069776,-0.2681699396735021,-0.7148834457205305,-0.20678172174553175,-0.8801158284706616,0.5252423450212929,0
0.2556643815937594,0.17329901061089095,-0.943020600790527,-0.7309415099401615,0.04208242574615689,0.7364138903725944,0.6445704159867078,-1.171986027212346,-0.8971507035192413,-0.20080041824333733,-0.5958329937524333,-0.37865224371587475,-0.6870932799811574,0.5089185427080097,0
0.3516944176070251,0.19247091850926643,-1.1318699798825123,-0.7000650204869372,-0.12707242284127912,0.9965233837610659,0.612530366069254,-0.8874696319470018,-0.29905023450643586,0.06736952143022429,-0.5958329937524333,-0.27526138284304785,-0.7084471844777996,0.49259474039475565,0
0.4477244536202907,0.21201874617038063,-0.7541712216985417,-0.5177749769844181,-0.169154848587436,0.9526087939681691,0.9348155740626222,-0.5683405365276571,0.22465237128773632,0.7044366464107609,-0.030198163426023817,0.4135634434910635,-0.4509442184885449,0.7550558756278175,0
0.3357933402152109,0.15412710271249838,-0.8485959112445344,-0.8526661318229194,-0.4653821200160761,0.9526087939681691,1.3211808818908979,-0.10660711647412516,0.2997796253222547,0.503636228167364,0.17828531099614636,0.5854339654614065,-0.32198338348904354,0.7057643941328279,0
0.4315115903972578,0.2890822975266213,-0.943020600790527,-0.7309415099401615,-0.5082896913651165,0.6063591436783587,0.9348155740626222,-0.39043125773643833,-0.22392298047191747,0.4029089825338912,-0.2084834744221702,0.44780327403985204,-0.17166864399286194,0.7387320733145343,0
0.831221026010944,0.8289030767830957,-0.18823623175731344,0.1828838221458628,0.169154848587436,0.13005474669423572,0.41903359401866347,-0.9587717942640955,-0.07439786321869953,1.1740610773512086,0.05923485902804902,0.6196737960101951,0.3864638009887561,1.2802982206491103,0
0.9752660800308425,1.117985374309717,0.2520035545675377,0.45661577672131326,0.6345369686035871,0.5632890652276508,0.5478220299614125,-0.63895044484172,0.6360287914379741,1.5769700598851593,0.595252259840434,0.8606953483044544,0.6443854709877588,1.510111751255635,0
0.8954489072405813,0.9443104439361044,0.15757886502154503,0.1828838221458628,0.6345369686035871,1.2127182873566407,0.6445704159867078,-0.4264284658965636,0.5237026057941059,1.542958262658243,0.5656348303264622,1.1017169005987746,0.30062947899232517,1.2802982206491103,0
0.9593650026390282,1.0213739952923622,0.2201198931623698,0.3348911548385553,0.42329969426999425,0.9965233837610659,0.3869935441011811,-0.8521646777899703,0.2997796253222547,1.44223101702477,0.3275339263902675,1.2051077614715406,0.19344125249925195,1.2310067391541206,0
1.0391821754292894,1.1950489256659576,0.2520035545675377,0.3651738656483819,0.2533197000797498,0.47630439698412297,0.3222852079933682,-0.9587717942640955,0.7483549770818422,1.2080728745781248,0.4465843783583649,1.1359567311475631,0.3864638009887561,1.2310067391541206,0
0.8153199486191298,0.8093552491219986,0.03188366140511213,0.030282710809880566,0.169154848587436,0.7794839688232256,0.7092787520945493,-0.284516395265407,0.8606811627257767,1.14070335314796,0.2381009039361947,0.7573044874316884,0.19344125249925195,1.0834523692243212,0
0.5275416264105234,0.44320940023911964,-0.18823623175731344,-0.06115920026305083,0.169154848587436,1.1696482089060094,1.192392445948149,0.03530495415696846,0.4121058109661229,1.241430598781433,-0.08943302245407284,0.2752613828431089,-0.08583432199643097,0.9355779247393525,0
0.4636255310121048,0.4623813081375122,-0.565934989941284,-0.39605035510160613,0.12707242284127912,1.2997029556002453,1.2564725457830852,-0.461733420053532,-0.07439786321869953,0.8725334134743984,-0.08943302245407284,0.0,-0.15031473949618163,0.7716997524962408,0
0.2397633042019453,0.30825420542501386,-0.9742911148609672,-0.9132315534426806,0.04208242574615689,1.3427730340508763,1.1603523960306665,-0.923466840107064,-0.5981004690128054,0.1340849698367808,-0.47678254178438867,-0.13763069142155446,-0.4936520274818674,0.3940117774047765,0
-0.016212863223032864,0.2311906540687561,-1.0999863184774001,-0.6394995988672301,0.2533197000797498,1.2127182873566407,1.192392445948149,-0.9940767484211269,-0.5981004690128054,0.16809676706369708,-0.8641320611147045,-0.3444124131670862,-0.7942815064742307,0.27910501210151417,0
0.28777832220857813,0.6552281464095002,-0.9117500867201425,0.12172462188281197,0.676619394349669,1.0395934622117737,0.7413188020120031,-1.4911151226316275,0.18745343967838657,1.0733338317177357,-0.238681637848194,-0.13763069142155446,-0.32198338348904354,0.7550558756278175,0
0.6235716624238173,0.9443104439361044,-0.6916301935577169,0.3348911548385553,0.5495469715083898,0.6933438119218865,0.2902451580758858,-1.917543588528191,0.3741774885409543,1.6436855082917157,0.505819237386361,0.13763069142155446,0.3651098964920758,1.0671285669110382,0
0.3675954949988392,0.6552281464095002,-0.8798664253149746,0.030282710809880566,0.08416485149231379,0.34624965028988725,0.41903359401866347,-1.2425959355264087,0.22465237128773632,1.4762428142516864,0.2381009039361947,0.0,0.27927557449564483,0.7880235548095239,0
0.3357933402152109,0.4819291357986093,-0.9742911148609672,-0.0914419110729314,0.08416485149231379,0.39016424008270717,0.5798620798788949,-0.5330355823706887,0.6360287914379741,1.3421578444149056,-0.030198163426023817,0.0,-0.021353904496680315,0.623825308011272,0
0.6394727398156032,0.7131197898673655,-0.4402397863248511,0.030282710809880566,0.08416485149231379,0.9526087939681691,0.8380671880372983,-0.31982134942243845,0.8234822311164269,1.4088732928214622,0.2084834744221702,0.37865224371587475,0.04312651300307034,0.804347357122807,0
0.6874877578222359,0.8672468925798638,-0.06254102814088051,0.12172462188281197,0.12707242284127912,1.3427730340508763,1.4179292679161932,-0.10660711647412516,0.673957113863209,1.4088732928214622,0.38676878541826376,0.6545849957853838,0.19344125249925195,0.984869406234342,0
0.7514038532206829,0.8867947202409608,-0.09381154221132078,0.21316653295574337,0.4653821200161511,1.2557883658073485,1.546717703858971,-0.39043125773643833,0.03792832242516864,1.3421578444149056,0.4169669488443404,0.7573044874316884,0.23656776550232228,1.0178370854160486,0
0.8633349666257627,0.8867947202409608,-0.09381154221132078,0.45661577672131326,0.42329969426999425,1.1257336191131129,1.0956440599228536,-1.2072909813693773,-0.7476255862660234,0.7718061678409256,0.17828531099614636,0.6196737960101951,0.10760693050282098,1.0015132831027653,0
0.8954489072405813,0.8867947202409608,0.0631541754755524,0.8526661318229194,0.2112372743335929,1.2127182873566407,0.6445704159867078,-1.8462414262110343,-0.6732277230473901,0.603709400777288,0.2084834744221702,0.6888248263341724,0.15031473949614355,1.1820353322143005,0
0.8792360440175768,0.790183341223606,0.15757886502154503,0.9132315534426806,0.42329969426999425,1.428913190952292,0.6766104659041902,-2.023458450999222,-0.411376420150304,0.8051638920442337,0.3275339263902675,0.723064656882961,0.27927557449564483,1.0341608877293316,0
0.6715866804304502,0.6360562385111077,-0.2513904072328658,0.45661577672131326,0.5924545428574303,1.5158978591958199,1.0956440599228536,-1.633027193262784,-0.2618513028970861,0.503636228167364,-0.11963118588009665,0.2752613828431089,-0.1285421309897916,0.4596270612130201,0
0.3195804769922064,0.5202729515953773,-0.7860548831037095,0.06115920026305083,0.507464545762308,1.2557883658073485,0.966855623980076,-0.9587717942640955,0.1502545080690368,0.536993952370672,-0.4471651122703642,-0.24102155229432032,-0.5581324449816562,0.27910501210151417,0
0.3195804769922064,0.5011010436969848,-0.9117500867201425,0.030282710809880566,0.507464545762308,1.1696482089060094,0.5157819800439587,-0.7815547694759075,-0.07439786321869953,0.536993952370672,-0.3281146603022668,-0.4471319048133909,-0.3864638009887942,0.5745338265162824,0
0.5275416264105234,0.5781645950532426,-0.8485959112445344,0.15200733269269254,0.5924545428574303,1.2557883658073485,0.354325257910822,-1.278593143686471,-0.6352994006221552,0.2014544912669456,-0.14924861539412115,-0.27526138284304785,0.0,0.7224082710012512,0
0.5596555670253704,0.6360562385111077,-0.6603596794872767,0.3651738656483819,0.5924545428574303,1.2127182873566407,0.3869935441011811,-1.1006838648952522,0.1502545080690368,0.8385216162475416,0.17828531099614636,0.44780327403985204,0.1289608349995013,0.804347357122807,0
0.6553738172074173,0.6552281464095002,-0.1256952036164329,0.42633306591148673,0.676619394349669,1.2127182873566407,0.41903359401866347,-0.49703837421056346,0.7483549770818422,1.8117822753553534,0.7143027118085312,0.9983260397260088,0.30062947899232517,1.0504846900425857,0
0.6874877578222359,0.6360562385111077,0.03188366140511213,0.24344924376562393,0.5495469715083898,1.2127182873566407,0.5157819800439587,-0.7455575613158452,-0.07439786321869953,1.5769700598851593,0.6248696893544584,0.5854339654614065,0.4509442184885068,1.0341608877293316,0
0.49573947162692344,0.4819291357986093,-0.6603596794872767,0.06115920026305083,0.338309697174872,1.1696482089060094,0.5478220299614125,-1.2425959355264087,-0.6352994006221552,0.8051638920442337,0.02961742951402451,0.17254189119674315,0.17208734800257164,0.6567929871930076,0
0.4636255310121048,0.42403749234074417,-0.8485959112445344,0.06115920026305083,0.2112372743335929,1.1257336191131129,0.354325257910822,-1.278593143686471,-0.6732277230473901,0.536993952370672,-0.059815592940048325,0.5854339654614065,0.0,0.4596270612130201,0
0.5434427038023375,0.44320940023911964,-0.28266092130330606,0.030282710809880566,0.04208242574615689,0.9095387155174612,0.3869935441011811,-1.3492030520005338,-0.560901537403522,0.57035167657398,0.4169669488443404,1.067477070050047,0.2579216699990026,0.7057643941328279,0
0.415610513005472,0.2890822975266213,-0.18823623175731344,-0.030282710809880566,-0.12707242284127912,0.9965233837610659,0.8380671880372983,-1.0653789107382206,-0.03719893160934976,1.0066183833111793,0.8037357342626041,1.1359567311475631,0.4509442184885068,1.0178370854160486,0
0.3357933402152109,0.30825420542501386,-0.34581509677885847,0.21316653295574337,0.04208242574615689,1.2127182873566407,1.0636040100053712,-0.31982134942243845,0.6360287914379741,1.509600538454935,0.8635513272026524,1.067477070050047,0.4727168269949349,1.0341608877293316,0
0.5596555670253704,0.6168843306127322,-0.15696571768687317,0.48749226617453756,0.2533197000797498,1.2127182873566407,1.0636040100053712,0.07060990831399988,1.0102062799789282,1.44223101702477,0.655067852780535,0.9983260397260088,0.40823640949518425,0.9192541224260693,0
0.6715866804304502,0.6744000543078758,-0.09381154221132078,0.3348911548385553,0.169154848587436,1.1257336191131129,1.030935723815012,-0.24851918710528173,0.7483549770818422,1.3081460471879893,0.35715135590429203,0.8264555177557268,0.32240208749875326,0.8866065177995031,0
0.5434427038023375,0.55899268715485,-0.09381154221132078,0.39605035510160613,0.169154848587436,0.9965233837610659,0.8701072379547807,-0.6036454906846886,-0.1867240488625677,1.6103277840884078,0.35715135590429203,0.8606953483044544,0.40823640949518425,1.0015132831027653,0
0.5755566444171846,0.6552281464095002,0.1263083509511048,0.7612242207499881,0.2533197000797498,0.6933438119218865,0.612530366069254,-1.1359888190522835,-0.6732277230473901,1.5769700598851593,0.7143027118085312,1.2393475920203292,0.6443854709877588,1.0015132831027653,0
0.6553738172074173,0.6360562385111077,-0.22011989316242556,0.6092168880573495,0.04208242574615689,0.47630439698412297,0.45107364393611726,-1.6690244014229092,-0.822752840300608,0.7718061678409256,0.5360174008124378,1.2051077614715406,0.5585511489913277,0.7224082710012512,0
0.5116405490187376,0.42403749234074417,-0.8485959112445344,0.1828838221458628,-0.12707242284127912,0.6933438119218865,0.612530366069254,-1.7043293555799406,-1.3085271236695453,0.3355394611037264,0.11905045196809735,0.6888248263341724,0.34375599199543355,0.6567929871930076,0
0.39970943561365785,0.4623813081375122,-0.8173253971741499,0.1828838221458628,0.04208242574615689,1.1257336191131129,1.030935723815012,-1.4205052143176276,-1.1590020064163273,0.6710789222074528,0.11905045196809735,0.5162829351374292,0.32240208749875326,0.8373150363045134,0
0.415610513005472,0.6552281464095002,-0.6284760180821087,0.24344924376562393,0.04208242574615689,1.1696482089060094,0.9988956738975584,-1.2425959355264087,-0.33624916611578565,0.8051638920442337,0.0,0.4135634434910635,0.1289608349995013,0.7224082710012512,0
0.30367939960039225,0.42403749234074417,-0.7541712216985417,0.0,-0.5082896913651165,0.9526087939681691,0.6766104659041902,-0.9587717942640955,0.03792832242516864,0.4696244309405072,-0.35773208981629134,0.06915103032397729,-0.2575029659892929,0.4433032588997661,0
0.1437332681886797,0.13495519481412288,-0.9117500867201425,0.0,-0.7195269656986343,1.0395934622117737,0.7733588519294855,-0.5330355823706887,0.0,0.4362667067371992,-0.47678254178438867,-0.06847966109751609,-0.4078177054854745,0.3283964935965038,0
0.1119311134050514,0.17329901061089095,-0.8485959112445344,0.12172462188281197,-0.38121726852383736,1.1696482089060094,0.9988956738975584,-0.3551263035794069,0.3741774885409543,0.57035167657398,-0.35773208981629134,0.06915103032397729,-0.23614906149261258,0.3613641727782102,0
0.1119311134050514,0.19247091850926643,-0.6916301935577169,0.0914419110729314,-0.5503721171112733,0.7364138903725944,0.9348155740626222,-0.284516395265407,0.5237026057941059,0.536993952370672,0.0,0.20678172174553175,0.0,0.5582100242030283,0
0.27187724481676395,0.2890822975266213,-0.7541712216985417,0.0914419110729314,-0.7195269656986343,0.13005474669423572,0.7733588519294855,-0.8168597236329389,-0.14952511725321793,0.7044366464107609,0.2084834744221702,0.44780327403985204,0.2147951569958942,0.7224082710012512,0
0.415610513005472,0.44320940023911964,-0.943020600790527,0.21316653295574337,-0.33913484277768047,-0.13005474669423572,0.41903359401866347,-1.9881534968421908,-1.0466758207724591,1.107345628944652,-0.238681637848194,0.4135634434910635,0.2147951569958942,0.623825308011272,0
0.28777832220857813,0.2890822975266213,-0.9742911148609672,0.24344924376562393,-0.33913484277768047,-0.17312482514494362,0.03266828619035907,-2.449886916895723,-1.495980563347932,0.8725334134743984,-0.47678254178438867,0.0,-0.08583432199643097,0.49259474039475565,0
0.1599461314116842,0.05751572369516063,-0.8798664253149746,0.0914419110729314,-0.7195269656986343,0.043070078450707906,0.09674838602529527,-1.917543588528191,-1.6083067489918002,0.034011797226916274,-0.38734951933031586,-0.17187052197028196,-0.3433372879857239,0.3940117774047765,0
0.17584720880349836,0.05751572369516063,-1.0374452903365197,0.0,-0.8045169627938316,0.13005474669423572,0.3222852079933682,-1.2072909813693773,-1.2713281920601955,-0.06671544840655652,-0.5958329937524333,-0.034239830548788576,-0.2788568704859732,0.41033557971803053,0
0.0,0.05751572369516063,-1.2575651834989452,0.06115920026305083,-0.5082896913651165,0.21703941493776355,0.5157819800439587,-0.7455575613158452,-0.37344809772506904,0.3021817369004184,-0.6556485866925343,-0.06847966109751609,-0.2575029659892929,0.49259474039475565,0
0.01590107739178579,0.11540736715302578,-1.2575651834989452,0.15200733269269254,-0.04290757134896533,0.5632890652276508,0.9021472878722631,-0.7455575613158452,-0.33624916611578565,0.3355394611037264,-0.3281146603022668,-0.10339086087276587,-0.2575029659892929,0.5582100242030283,0
0.4315115903972578,0.5394448594937529,-0.943020600790527,0.48749226617453756,0.5495469715083898,0.8233985586161222,1.1276841098403074,-0.9940767484211269,-0.7104266546567399,0.6710789222074528,0.02961742951402451,0.3101725826182976,0.1289608349995013,0.7880235548095239,0
0.5755566444171846,0.7131197898673655,-0.6916301935577169,0.8829488426328,0.676619394349669,1.1696482089060094,1.289140831973444,-0.49703837421056346,0.48650367418482243,1.4762428142516864,0.4465843783583649,0.9640862091772202,0.5585511489913277,0.9685456039210589,0
0.4795266084038906,0.6168843306127322,-0.8798664253149746,1.004673464515612,0.5924545428574303,1.428913190952292,1.4820093677511295,0.1059148624710313,1.4967099541637507,1.9458672451921342,0.6846852822945068,1.0332372395012586,0.6230315664910784,0.9355779247393525,0
0.5434427038023375,0.6360562385111077,-0.565934989941284,1.004673464515612,0.7195269656987093,1.3858431125015842,1.4179292679161932,-0.21321423294825032,0.5616309282193408,1.4088732928214622,0.5656348303264622,0.8956065480797041,0.4727168269949349,0.9685456039210589,0
0.5914577218089704,0.6360562385111077,0.0631541754755524,1.126398086398424,0.8036918171909481,1.3858431125015842,1.2564725457830852,-0.5683405365276571,0.11232618564386816,0.9058911376777065,0.38676878541826376,0.8606953483044544,0.3651098964920758,0.9522218016077758,0
0.4477244536202907,0.4819291357986093,-0.28266092130330606,0.9743907537057314,0.6345369686035871,1.6028825274393477,1.289140831973444,-0.5683405365276571,0.5237026057941059,1.1740610773512086,0.2973357629641909,0.6196737960101951,0.40823640949518425,0.9522218016077758,0
0.4636255310121048,0.4819291357986093,-1.006174776266135,0.7000650204869372,0.4653821200161511,1.3858431125015842,1.3858892179987394,-0.5330355823706887,0.11232618564386816,1.4762428142516864,0.35715135590429203,0.4135634434910635,0.5154246359882574,1.1327438507193108,0
0.5596555670253704,0.55899268715485,-0.8485959112445344,0.8829488426328,0.3803921229210289,1.1696482089060094,1.289140831973444,-0.24851918710528173,-0.1115967948280493,1.2080728745781248,0.38676878541826376,0.723064656882961,0.5154246359882574,1.0504846900425857,0
0.49573947162692344,0.44320940023911964,-0.6284760180821087,1.0355499539687822,0.169154848587436,1.2127182873566407,1.0956440599228536,-0.14260432463425043,0.4121058109661229,0.9392488618810144,-0.08943302245407284,0.48204310458864064,0.06448041749975066,0.623825308011272,0
0.4477244536202907,0.4819291357986093,-0.8173253971741499,0.9132315534426806,0.0,1.0826635406624048,0.966855623980076,-0.31982134942243845,0.2618513028970861,1.0066183833111793,-0.35773208981629134,0.0,-0.2575029659892929,0.7224082710012512,0
0.4315115903972578,0.5781645950532426,-0.7860548831037095,0.9441080428958508,0.338309697174872,0.8664686370668302,0.8380671880372983,-0.7102526071588138,-0.5237026057941722,0.9058911376777065,0.02961742951402451,0.37865224371587475,0.021772608506390023,1.0671285669110382,0
0.39970943561365785,0.44320940023911964,-0.7860548831037095,0.9441080428958508,0.5924545428574303,0.8233985586161222,0.7733588519294855,-1.1006838648952522,-0.560901537403522,0.57035167657398,0.02961742951402451,0.44780327403985204,0.08625302600614068,0.8206711594360901,0
0.3838083582218437,0.3469739409844864,-0.6603596794872767,0.8526661318229194,0.3803921229210289,0.7364138903725944,1.030935723815012,-1.278593143686471,-0.03719893160934976,0.7044366464107609,-0.35773208981629134,0.0,-0.2788568704859732,0.5908576288295656,0
0.5596555670253704,0.6552281464095002,-0.09381154221132078,1.004673464515612,0.3803921229210289,0.9965233837610659,1.289140831973444,-1.278593143686471,-0.07439786321869953,0.9732606591078712,-0.2084834744221702,0.2752613828431089,-0.04270780899336063,0.9355779247393525,0
0.8474338892339485,0.8480749846814712,0.15757886502154503,1.0961153755885433,0.7195269656987093,1.6028825274393477,1.3211808818908979,-0.9587717942640955,-0.29905023450643586,0.9392488618810144,0.2381009039361947,0.8264555177557268,0.42959031399182646,1.1164200484060276,0
0.8954489072405813,0.5394448594937529,0.0631541754755524,0.7612242207499881,0.5495469715083898,1.558967937646528,1.3858892179987394,-0.461733420053532,0.2618513028970861,0.9732606591078712,0.38676878541826376,0.8606953483044544,0.30062947899232517,0.9685456039210589,0
0.6553738172074173,0.3469739409844864,0.0631541754755524,0.48749226617453756,0.04208242574615689,1.0395934622117737,1.4820093677511295,-0.21321423294825032,0.8234822311164269,1.3421578444149056,0.38676878541826376,0.8264555177557268,0.08625302600614068,1.0671285669110382,0
0.5275416264105234,0.42403749234074417,-0.31393143537374635,0.30460844402867476,-0.04290757134896533,0.8664686370668302,1.4820093677511295,-0.3551263035794069,0.48650367418482243,1.241430598781433,0.35715135590429203,0.6888248263341724,0.08625302600614068,1.0997761715375753,0
0.6394727398156032,0.30825420542501386,-0.8485959112445344,0.3651738656483819,-0.04290757134896533,0.8664686370668302,1.3858892179987394,-0.21321423294825032,0.3741774885409543,0.9392488618810144,0.11905045196809735,0.37865224371587475,-0.04270780899336063,0.9355779247393525,0
0.8474338892339485,0.32742611332338933,-0.565934989941284,0.7309415099401615,0.42329969426999425,1.2997029556002453,1.3858892179987394,0.0,0.5616309282193408,1.3081460471879893,0.2381009039361947,0.8264555177557268,0.23656776550232228,1.1983591345275835,0
0.9431521394160237,0.5781645950532426,-0.31393143537374635,0.6697823096770567,1.014929091524541,1.7760073525842914,1.4499693178336757,-0.14260432463425043,0.3369785569316045,1.7110550297218805,0.9529843496567253,1.4118894832170723,0.859180627983691,1.510111751255635,0
0.831221026010944,0.5394448594937529,-0.8173253971741499,0.15200733269269254,0.7616093914448663,1.558967937646528,1.4179292679161932,-0.10660711647412516,0.5237026057941059,1.7777704781284966,1.2207026831069445,1.3769782834418836,0.9236610454834416,1.2969420975175627,0
0.7192899126058643,0.366145848882879,-1.0687158044069598,0.15200733269269254,0.42329969426999425,1.5158978591958199,1.514677653941517,-0.07130216231715669,0.785553908691192,1.6103277840884078,0.7741183047485796,0.9640862091772202,0.4940707314915771,0.9685456039210589,0
0.7192899126058643,0.42403749234074417,-0.8485959112445344,0.42633306591148673,0.845774242937105,1.906062099278527,1.5787577537764532,-0.31982134942243845,0.4121058109661229,1.4088732928214622,0.4169669488443404,0.6888248263341724,0.2147951569958942,0.9029303201127862,0
0.7033888352140502,0.4819291357986093,-0.7541712216985417,0.30460844402867476,0.9307642400323022,1.8190774310349993,1.4820093677511295,-0.63895044484172,0.18745343967838657,1.3421578444149056,0.3275339263902675,0.6196737960101951,0.23656776550232228,0.9192541224260693,0
0.6235716624238173,0.40448966467964703,-0.7860548831037095,0.15200733269269254,0.42329969426999425,1.2557883658073485,1.1603523960306665,-0.63895044484172,0.44930474257547265,1.542958262658243,0.2677183334502192,0.5854339654614065,0.30062947899232517,0.9685456039210589,0
0.6715866804304502,0.44320940023911964,-0.7541712216985417,0.30460844402867476,0.29622727142871513,0.9965233837610659,0.8053989018469393,-0.461733420053532,0.5616309282193408,1.8784977237619693,0.4169669488443404,0.8956065480797041,0.3651098964920758,1.2146829368408376,0
0.8153199486191298,0.5973365029516351,-0.5972055040117242,0.45661577672131326,0.4653821200161511,1.0395934622117737,0.8053989018469393,-0.3551263035794069,0.5988298598286906,2.046594490825607,0.6846852822945068,1.342738452893095,0.4727168269949349,1.3625573813258063,0
0.831221026010944,0.6744000543078758,-0.5340513285361161,0.42633306591148673,0.5924545428574303,1.1696482089060094,0.9021472878722631,-0.31982134942243845,0.6360287914379741,1.6770432324950237,0.6248696893544584,1.1359567311475631,0.40823640949518425,1.1164200484060276,0
0.6715866804304502,0.5973365029516351,-0.7541712216985417,0.39605035510160613,0.5495469715083898,1.2557883658073485,0.7733588519294855,-0.461733420053532,0.2997796253222547,1.14070335314796,0.38676878541826376,0.6545849957853838,0.30062947899232517,0.8536388386177967,0
0.6073587992007845,0.44320940023911964,-0.943020600790527,0.3348911548385553,0.2533197000797498,1.0826635406624048,0.6445704159867078,-0.8874696319470018,-0.1115967948280493,1.0066183833111793,0.2381009039361947,0.6196737960101951,0.2147951569958942,0.8866065177995031,0
0.6874877578222359,0.366145848882879,-0.9742911148609672,0.12172462188281197,0.12707242284127912,0.7364138903725944,0.5478220299614125,-1.562417284948784,-0.6732277230473901,0.9392488618810144,0.38676878541826376,0.8264555177557268,0.32240208749875326,1.1164200484060276,0
0.7033888352140502,0.3469739409844864,-0.9117500867201425,0.12172462188281197,0.0,0.4332343185334151,0.41903359401866347,-1.810936472054066,-1.0466758207724591,0.7044366464107609,0.5360174008124378,0.9983260397260088,0.3864638009887561,1.1983591345275835,0
0.6553738172074173,0.30825420542501386,-0.9117500867201425,0.15200733269269254,0.0,0.6494292221289898,0.45107364393611726,-1.1359888190522835,-0.6352994006221552,0.4696244309405072,0.38676878541826376,0.9298463786284927,0.2147951569958942,1.1327438507193108,0
0.6874877578222359,0.366145848882879,-0.9742911148609672,0.21316653295574337,0.3803921229210289,0.8664686370668302,0.6445704159867078,-0.7815547694759075,-0.07439786321869953,0.7384484436376176,0.35715135590429203,0.5511941349126179,0.23656776550232228,1.0997761715375753,0
0.767304930612497,0.5202729515953773,-0.9742911148609672,0.39605035510160613,0.42329969426999425,0.8664686370668302,0.7733588519294855,-1.1359888190522835,-0.411376420150304,1.14070335314796,0.47620180787233657,0.44780327403985204,0.4940707314915771,1.0997761715375753,0
0.8153199486191298,0.5394448594937529,-0.8798664253149746,0.42633306591148673,0.2533197000797498,1.0826635406624048,0.8053989018469393,-1.1006838648952522,-0.7476255862660234,0.6710789222074528,0.35715135590429203,0.6545849957853838,0.40823640949518425,1.0341608877293316,0
0.6715866804304502,0.366145848882879,-0.8173253971741499,0.12172462188281197,0.08416485149231379,1.1257336191131129,0.8053989018469393,-0.8168597236329389,-0.48577428336893724,0.1340849698367808,0.08885228854207353,0.6888248263341724,0.08625302600614068,0.984869406234342,0
0.5755566444171846,0.3469739409844864,-0.8173253971741499,0.21316653295574337,-0.04290757134896533,0.8233985586161222,1.030935723815012,-1.1006838648952522,-0.4485753517596538,0.8385216162475416,0.2084834744221702,0.8264555177557268,0.19344125249925195,1.1820353322143005,0
0.6715866804304502,0.5202729515953773,-0.7860548831037095,0.39605035510160613,0.04208242574615689,0.8664686370668302,1.3858892179987394,-0.923466840107064,-0.14952511725321793,1.6436855082917157,0.5656348303264622,0.9983260397260088,0.4727168269949349,1.2310067391541206,0
0.6235716624238173,0.44320940023911964,-0.9742911148609672,0.1828838221458628,0.2112372743335929,0.9095387155174612,1.546717703858971,-0.3551263035794069,0.2997796253222547,1.3755155686182137,0.4169669488443404,0.723064656882961,0.34375599199543355,0.9522218016077758,0
0.49573947162692344,0.2311906540687561,-1.1631404939529526,0.030282710809880566,0.2112372743335929,1.0826635406624048,1.4820093677511295,-0.4264284658965636,0.1502545080690368,1.2080728745781248,-0.030198163426023817,0.5511941349126179,0.04312651300307034,0.8206711594360901,0
0.5434427038023375,0.19247091850926643,-1.006174776266135,0.1828838221458628,0.0,1.2127182873566407,1.3211808818908979,-0.8168597236329389,-0.2618513028970861,1.1740610773512086,-0.35773208981629134,0.8606953483044544,-0.06406171349004094,0.9029303201127862,0
0.5596555670253704,0.15412710271249838,-0.9742911148609672,0.1828838221458628,-0.21206241993640132,0.5202189867769429,1.1276841098403074,-1.0300739565811892,-0.7476255862660234,0.8051638920442337,-0.5365981347244371,0.9640862091772202,-0.04270780899336063,0.9685456039210589,0
0.49573947162692344,0.0,-1.1631404939529526,0.030282710809880566,-0.12707242284127912,0.13005474669423572,0.8380671880372983,-1.455810168474659,-1.495980563347932,0.4029089825338912,-0.6254504232664577,0.6545849957853838,-0.1285421309897916,0.9522218016077758,0
0.4795266084038906,-0.057891643457865155,-1.0999863184774001,0.06115920026305083,0.08416485149231379,0.26010949338847145,0.6445704159867078,-1.8462414262110343,-1.8322297294636511,0.1007272456334728,-0.5063999712983603,0.5854339654614065,-0.2788568704859732,0.8206711594360901,0
0.3838083582218437,0.019171907898392574,-0.8485959112445344,0.1828838221458628,0.04208242574615689,0.39016424008270717,0.8701072379547807,-1.562417284948784,-1.1218030748069776,0.1007272456334728,-0.5958329937524333,0.7573044874316884,-0.30062947899236325,0.7057643941328279,0
0.3516944176070251,0.15412710271249838,-0.9742911148609672,0.15200733269269254,0.2112372743335929,0.5202189867769429,0.966855623980076,-0.923466840107064,-0.5981004690128054,0.4029089825338912,-0.8641320611147045,0.6888248263341724,-0.15031473949618163,0.7387320733145343,0
0.5596555670253704,0.30825420542501386,-1.0374452903365197,0.24344924376562393,0.3803921229210289,0.6933438119218865,0.6766104659041902,-0.8168597236329389,-0.2618513028970861,0.7718061678409256,-0.38734951933031586,0.6545849957853838,0.04312651300307034,0.9355779247393525,0
0.6553738172074173,0.38531775678125446,-0.9117500867201425,0.30460844402867476,-0.08498999709512221,0.7364138903725944,0.9348155740626222,-0.4264284658965636,0.8606811627257767,1.4088732928214622,0.11905045196809735,0.8956065480797041,0.2147951569958942,1.1327438507193108,0
0.6235716624238173,0.3469739409844864,-0.943020600790527,0.15200733269269254,-0.21206241993640132,0.9965233837610659,1.5787577537764532,0.21252197894515645,0.93507902594441,1.44223101702477,-0.17886604490814567,1.0332372395012586,0.34375599199543355,1.0997761715375753,0
0.6073587992007845,0.366145848882879,-1.0687158044069598,0.12172462188281197,0.29622727142871513,1.3427730340508763,1.4179292679161932,-0.49703837421056346,-0.48577428336893724,0.57035167657398,-0.14924861539412115,0.8606953483044544,0.23656776550232228,0.8373150363045134,0
0.5434427038023375,0.44320940023911964,-0.943020600790527,0.21316653295574337,0.2112372743335929,1.1257336191131129,1.030935723815012,-1.4205052143176276,-0.9350790259444762,0.603709400777288,0.2973357629641909,0.7922156872069382,0.1289608349995013,0.7880235548095239,0
0.5914577218089704,0.44320940023911964,-0.8485959112445344,0.1828838221458628,0.169154848587436,1.1696482089060094,1.0956440599228536,-0.8874696319470018,-0.33624916611578565,1.542958262658243,0.2381009039361947,1.170867930922813,0.42959031399182646,1.1820353322143005,0
0.767304930612497,0.42403749234074417,-0.943020600790527,0.1828838221458628,0.42329969426999425,1.1257336191131129,1.1276841098403074,-0.6036454906846886,-0.37344809772506904,1.5769700598851593,0.02961742951402451,1.0332372395012586,0.4940707314915771,1.2146829368408376,0
0.5755566444171846,0.366145848882879,-0.9742911148609672,0.30460844402867476,0.5495469715083898,0.9965233837610659,1.0956440599228536,-1.3138980978435024,-0.6352994006221552,0.9392488618810144,-0.14924861539412115,0.2752613828431089,0.1289608349995013,0.623825308011272,0
0.22386222681013115,0.26953446986552415,-1.1631404939529526,0.27432573321879417,0.6345369686035871,1.1696482089060094,1.2244324958656028,-1.3138980978435024,-0.48577428336893724,0.8725334134743984,-0.5662155642384615,-0.034239830548788576,-0.021353904496680315,0.41033557971803053,0
0.2556643815937594,0.3469739409844864,-1.4145309011858183,0.1828838221458628,0.5495469715083898,1.1696482089060094,1.1603523960306665,-1.0300739565811892,-0.4485753517596538,1.3755155686182137,-0.41696694884428753,0.4135634434910635,0.23656776550232228,0.8866065177995031,0
0.415610513005472,0.42403749234074417,-1.2575651834989452,0.0914419110729314,0.0,0.9965233837610659,1.030935723815012,-0.9587717942640955,0.0751272540345184,1.9118554479652774,0.2973357629641909,0.7573044874316884,0.42959031399182646,1.2146829368408376,0
0.49573947162692344,0.30825420542501386,-0.9742911148609672,0.06115920026305083,-0.04290757134896533,1.1257336191131129,1.1276841098403074,-0.7102526071588138,0.5988298598286906,1.9118554479652774,0.2973357629641909,0.8264555177557268,0.4509442184885068,1.0834523692243212,0
0.5596555670253704,0.2311906540687561,-0.943020600790527,0.15200733269269254,0.2533197000797498,1.2127182873566407,1.289140831973444,-0.39043125773643833,0.4121058109661229,1.509600538454935,0.08885228854207353,1.0332372395012586,0.4509442184885068,1.0015132831027653,0
0.4636255310121048,0.2311906540687561,-1.006174776266135,0.15200733269269254,-0.169154848587436,0.7794839688232256,1.3211808818908979,0.0,0.4121058109661229,1.4088732928214622,0.4169669488443404,1.2393475920203292,0.4509442184885068,0.9355779247393525,0
0.3516944176070251,0.07706355135625774,-1.0999863184774001,0.06115920026305083,-0.42329969426999425,0.6063591436783587,1.2564725457830852,0.24851918710521878,0.3369785569316045,1.4762428142516864,0.4169669488443404,1.0332372395012586,0.4727168269949349,0.7550558756278175,0
0.3675954949988392,-0.038719735559472584,-1.1631404939529526,0.0,-0.169154848587436,1.0395934622117737,1.289140831973444,-0.17790927879128185,-0.5237026057941722,1.0066183833111793,-0.14924861539412115,0.6545849957853838,0.30062947899232517,0.6731167895062616,0
0.4795266084038906,0.09623545925463321,-1.0374452903365197,0.030282710809880566,0.04208242574615689,1.1696482089060094,1.1603523960306665,-0.7455575613158452,-0.7476255862660234,0.503636228167364,-0.17886604490814567,0.5162829351374292,0.19344125249925195,0.8699626409310798,0
0.6715866804304502,0.40448966467964703,-0.8173253971741499,0.24344924376562393,0.4653821200161511,0.6933438119218865,0.7733588519294855,-0.7455575613158452,0.3369785569316045,1.0399761075144873,0.47620180787233657,0.8606953483044544,0.4509442184885068,1.0834523692243212,0
0.831221026010944,0.55899268715485,-0.7541712216985417,0.42633306591148673,0.676619394349669,0.21703941493776355,0.3869935441011811,-0.7815547694759075,0.6360287914379741,1.8117822753553534,0.8333531637766286,1.170867930922813,0.8160541149806206,1.0834523692243212,0
0.6874877578222359,0.5011010436969848,-0.8173253971741499,0.7000650204869372,0.3803921229210289,0.4332343185334151,0.03266828619035907,-1.2072909813693773,-0.07439786321869953,1.542958262658243,0.5656348303264622,0.723064656882961,0.7733463059872601,0.9192541224260693,0
0.4636255310121048,0.38531775678125446,-0.943020600790527,0.7612242207499881,0.5924545428574303,0.4332343185334151,-0.12878843594277764,-1.455810168474659,-0.1867240488625677,1.14070335314796,0.2381009039361947,0.3444124131670862,0.42959031399182646,0.7550558756278175,0
0.3675954949988392,0.40448966467964703,-0.8798664253149746,0.5480576877942447,0.8886818142861453,0.13005474669423572,0.12941667221565434,-1.278593143686471,-0.29905023450643586,1.4088732928214622,0.14866788148212184,0.48204310458864064,0.30062947899232517,0.7387320733145343,0
0.2556643815937594,0.366145848882879,-0.8798664253149746,0.39605035510160613,0.3803921229210289,0.21703941493776355,0.9021472878722631,-0.9587717942640955,-0.4485753517596538,1.4088732928214622,0.11905045196809735,0.20678172174553175,0.2147951569958942,0.607501505698018,0
0.1437332681886797,0.26953446986552415,-1.2888356975693855,0.24344924376562393,0.0,0.26010949338847145,1.3532209318083803,-0.63895044484172,-0.1867240488625677,0.8385216162475416,-0.17886604490814567,0.0,-0.06406171349004094,0.41033557971803053,0
0.1599461314116842,0.2503625619671487,-1.4776850766613707,0.3348911548385553,0.338309697174872,0.4332343185334151,1.2564725457830852,-0.5683405365276571,-0.2618513028970861,0.6377211980041448,-0.4471651122703642,0.2752613828431089,-0.1285421309897916,0.47627093808147253,0
0.1917482861953125,0.30825420542501386,-1.0999863184774001,0.6697823096770567,0.2533197000797498,0.6494292221289898,1.192392445948149,-0.9940767484211269,-1.0094768891631094,0.6377211980041448,-0.35773208981629134,0.3101725826182976,-0.1285421309897916,0.6731167895062616,0
0.1437332681886797,0.19247091850926643,-0.8485959112445344,0.5480576877942447,-0.21206241993640132,0.26010949338847145,0.9348155740626222,-1.455810168474659,-1.0846041431976279,0.4029089825338912,-0.38734951933031586,0.2752613828431089,-0.3433372879857239,0.5252423450212929,0
0.17584720880349836,-0.019547827661097104,-0.943020600790527,-0.030282710809880566,-0.12707242284127912,0.043070078450707906,0.5798620798788949,-1.1359888190522835,-0.29905023450643586,0.3021817369004184,-0.5958329937524333,0.5162829351374292,-0.3864638009887942,0.2464574074749479,0
0.3675954949988392,0.2503625619671487,-0.8485959112445344,0.27432573321879417,0.338309697174872,0.5632890652276508,0.5157819800439587,-0.49703837421056346,0.0,0.536993952370672,-0.38734951933031586,0.6545849957853838,-0.08583432199643097,0.5418862218897452,0
0.5596555670253704,0.7322916977657409,-0.6284760180821087,1.065832664778663,0.42329969426999425,0.47630439698412297,0.354325257910822,-0.8168597236329389,-0.37344809772506904,0.8051638920442337,0.14866788148212184,0.7573044874316884,0.23656776550232228,0.9355779247393525,0
0.6235716624238173,0.6744000543078758,-0.7229007076281014,1.2178399974713554,0.3803921229210289,0.17312482514494362,0.16145672213310816,-1.562417284948784,-0.5237026057941722,0.9058911376777065,0.3275339263902675,0.8606953483044544,0.40823640949518425,0.8373150363045134,0
0.6073587992007845,0.4623813081375122,-0.7541712216985417,1.0355499539687822,0.7616093914448663,0.7364138903725944,0.5798620798788949,-0.923466840107064,-0.07439786321869953,1.2080728745781248,0.4169669488443404,1.1359567311475631,0.4940707314915771,0.8206711594360901,0
0.7033888352140502,0.55899268715485,-0.47151030039529135,1.126398086398424,0.7616093914448663,1.0395934622117737,0.966855623980076,-0.17790927879128185,-0.1115967948280493,1.4762428142516864,0.505819237386361,1.3769782834418836,0.3864638009887561,1.0341608877293316,0
0.6553738172074173,0.5202729515953773,-0.5027808144657316,0.8829488426328,0.338309697174872,0.7794839688232256,0.9021472878722631,-0.8168597236329389,-0.7476255862660234,1.14070335314796,0.02961742951402451,1.0332372395012586,0.10760693050282098,0.7880235548095239,0
0.3838083582218437,0.26953446986552415,-0.8798664253149746,0.3348911548385553,0.507464545762308,0.9965233837610659,1.0956440599228536,-1.3138980978435024,-0.6732277230473901,0.8385216162475416,-0.297916496876243,0.44780327403985204,-0.08583432199643097,0.4596270612130201,0
0.2556643815937594,0.26953446986552415,-1.0687158044069598,0.27432573321879417,0.9307642400323022,1.558967937646528,1.4820093677511295,-0.5683405365276571,0.03792832242516864,0.9392488618810144,-0.2084834744221702,0.3101725826182976,-0.10718822649311129,0.5252423450212929,0
0.2556643815937594,0.26953446986552415,-0.9742911148609672,0.3651738656483819,0.845774242937105,1.472827780745112,1.3532209318083803,-0.31982134942243845,0.22465237128773632,1.0733338317177357,-0.4471651122703642,0.4135634434910635,-0.1285421309897916,0.5252423450212929,0
0.12783219079686556,0.09623545925463321,-1.0687158044069598,0.21316653295574337,0.3803921229210289,0.8664686370668302,0.8053989018469393,-1.2072909813693773,-0.8599517719098915,0.503636228167364,-0.9529843496567253,0.20678172174553175,-0.42917160998211673,0.3120726912832206,0
0.1599461314116842,0.019171907898392574,-1.0999863184774001,0.21316653295574337,0.29622727142871513,0.5202189867769429,0.7413188020120031,-1.6690244014229092,-1.757831866245018,-0.16744269404002932,-1.042417372110798,-0.10339086087276587,-0.7942815064742307,0.21348972829324148,0
0.49573947162692344,0.11540736715302578,-0.7860548831037095,0.39605035510160613,0.42329969426999425,0.6063591436783587,0.9988956738975584,-1.2072909813693773,-1.1590020064163273,0.06736952143022429,-0.5958329937524333,0.3101725826182976,-0.5367785404849759,0.5252423450212929,0
0.5275416264105234,0.11540736715302578,-0.6603596794872767,0.6092168880573495,0.4653821200161511,0.5632890652276508,0.8701072379547807,-1.2072909813693773,-1.0094768891631094,0.6710789222074528,-0.238681637848194,0.9298463786284927,-0.06406171349004094,0.8206711594360901,0
0.39970943561365785,0.09623545925463321,-0.9117500867201425,0.7915069315598686,0.3803921229210289,0.4332343185334151,0.5798620798788949,-1.5977222391057526,-1.495980563347932,0.4362667067371992,-0.11963118588009665,0.9298463786284927,-0.06406171349004094,0.7387320733145343,0
0.7033888352140502,0.5973365029516351,-0.7229007076281014,0.9132315534426806,0.507464545762308,0.6933438119218865,0.6766104659041902,-1.0653789107382206,-0.5237026057941722,0.3355394611037264,0.17828531099614636,0.9640862091772202,0.0,0.9685456039210589,0
1.3269604976378675,1.2721124770222154,0.1263083509511048,1.3395646193541673,0.9307642400323022,1.2997029556002453,1.2244324958656028,-0.10660711647412516,0.9730073483696449,1.4762428142516864,0.6248696893544584,1.4803691443146494,0.579905053488008,1.7072776772355933,0
1.8067988918730051,1.503679050853676,0.9123632340547586,1.9487815074114627,1.2269915114609422,1.6459526058900558,1.4820093677511295,-0.17790927879128185,0.6360287914379741,2.146667663435531,1.0720348016248227,1.96241224890329,1.0953296894763036,2.1832285407618963,0
2.0624632734667645,1.6190864180067017,1.0380584376711914,2.0402234184843944,1.1849090857148605,1.2997029556002453,1.1276841098403074,-0.6036454906846886,0.0,1.3755155686182137,1.3101357055610172,2.203433801197549,1.1811640114727346,2.2818115037518756,0
2.334340518283557,2.120563381466408,0.9749042621956391,1.9184987966016362,1.2269915114609422,0.8664686370668302,0.6766104659041902,-0.8168597236329389,0.0751272540345184,1.0733338317177357,1.19108525359292,2.0315632792272673,1.1811640114727346,2.494981157489948,0
2.7340499538972147,2.6795560686212583,1.0061747762660793,2.3751145733229495,1.4811363571435006,1.1696482089060094,0.6445704159867078,-1.3845080061575024,-0.1867240488625677,1.3421578444149056,1.101652231138847,2.0315632792272673,1.310124846472236,2.8233776510864517,0
3.101645448896054,2.9686383661478795,1.2262946694285048,2.9534549719270746,1.5232187828896575,1.0395934622117737,0.9021472878722631,-1.633027193262784,-0.29905023450643586,1.3081460471879893,1.3699512985010656,2.410215522943142,1.5676278124614906,3.053191181692976,0
3.293705520922585,2.852855079232149,1.1950241553580647,3.01461417219018,0.9728466657783841,0.3031795718391794,1.0636040100053712,-1.278593143686471,-0.560901537403522,0.9732606591078712,1.3995687280150901,2.203433801197549,1.610754325464561,3.135130267814503,0
3.4695527297261117,2.814511263435364,1.0061747762660793,2.7711649284245556,0.338309697174872,0.17312482514494362,0.8053989018469393,-1.562417284948784,-1.4208533093134135,0.3355394611037264,0.8333531637766286,1.7213906966089698,1.3528326554655583,3.283004712299472,0
3.677513879144457,3.238548755776108,0.8804795726496465,2.923172261117194,0.29622727142871513,0.47630439698412297,0.5478220299614125,-2.094760613316316,-1.870158051888886,-0.3015276638768101,0.47620180787233657,1.790541726932947,1.1598101069760542,3.463526761411007,0
3.86926216533977,3.508459145404337,0.8804795726496465,3.075179593809887,0.29622727142871513,0.13005474669423572,0.5478220299614125,-1.917543588528191,-1.7206329346356681,-0.3688971853069749,0.6248696893544584,2.1349541401000334,1.1380374984696262,3.496174366037573,0
4.205055505555009,3.4505675019464714,1.3207193589744977,2.862606839497487,-0.21206241993640132,-0.47630439698412297,0.354325257910822,-1.810936472054066,-1.7950307978543678,-0.06671544840655652,0.744500875234608,2.341064492619104,1.1811640114727346,3.6933402920175316,0
4.524947768378405,3.566350788862202,1.886654348915726,3.166621504882818,-0.33913484277768047,-0.3031795718391794,0.12941667221565434,-1.9528485426851594,-1.9824842375327543,-0.33488538808011814,0.8333531637766286,2.616997244688674,1.310124846472236,4.103675871735562,0
4.876642185985459,4.20240702737331,2.3268941352405768,3.9278457256328063,0.3803921229210289,-0.08614015690141581,0.22553682196804434,-2.023458450999222,-1.8322297294636511,-0.43561263371359094,1.2503201126209689,2.8231075972077444,1.5676278124614906,4.382780883837076,0
5.036588317397172,4.376081957746905,2.1067742420781514,3.8369975932032183,0.338309697174872,-0.3031795718391794,0.612530366069254,-0.8874696319470018,0.18745343967838657,1.3755155686182137,1.994820987855524,2.8922586275317217,2.2115945794395397,4.317165600028804,0
4.9564593587756915,4.1445153839154445,1.9498085243912782,3.745555682130287,0.08416485149231379,-0.34624965028988725,0.7413188020120031,-1.3138980978435024,-0.6352994006221552,0.8051638920442337,1.3397531350750418,2.4444553534918696,1.9972181264533553,4.185614957857118,0
4.6527799591753,4.048279924660829,1.4464145625908746,3.6541137710573555,-0.169154848587436,-0.34624965028988725,0.7413188020120031,-1.7043293555799406,-1.6455056806011499,-0.16744269404002932,1.2503201126209689,2.203433801197549,1.868257291453854,4.087352069422279,0
4.700794977181933,4.453145509103162,1.3207193589744977,3.8369975932032183,0.08416485149231379,-1.1688036975638207,0.22553682196804434,-2.2013677297904413,-2.132009354785972,-0.10007317260986452,1.3397531350750418,1.9973234486784788,1.9327377089536046,4.169291155543835,0
4.940558281383906,4.511037152561028,1.38387353445005,3.8975630148229796,0.3803921229210289,-1.3427730340508763,0.16145672213310816,-2.7690160123150047,-2.58058470654556,0.3021817369004184,1.2805182760469929,1.7563018963841586,2.0612798399433583,4.366137006968624,0
4.780612149972193,4.009560189101322,1.2262946694285048,3.4106645272917318,0.2112372743335929,-0.38931972874051834,0.5798620798788949,-2.6984061040010046,-2.5054574525110413,0.2014544912669456,1.489001750469163,1.9281724183545015,2.0612798399433583,4.251230241665361,0
4.284872678345241,3.334784215030741,1.0693289517416318,2.801447639234436,-0.169154848587436,-0.08614015690141581,0.5798620798788949,-2.0594556591592847,-1.196930328841496,0.3688971853070344,1.6672870614652566,2.203433801197549,1.9540916134502468,3.8738623411290374,0
4.045109374143297,3.007358101707352,1.0693289517416318,2.7100057281615046,-0.04290757134896533,-0.26010949338847145,0.6445704159867078,-1.2072909813693773,0.3741774885409543,0.9392488618810144,1.489001750469163,2.065803109776056,1.9540916134502468,3.742631773512521,0
4.301085541568274,3.315612307132366,1.100599465812072,2.9534549719270746,0.338309697174872,0.043070078450707906,1.1276841098403074,-0.39043125773643833,1.085333534013513,1.3081460471879893,1.2503201126209689,1.8590213880305242,1.8037768739541034,3.824570859634048,0
4.3487887737436886,3.4313955940480962,0.9749042621956391,2.923172261117194,0.29622727142871513,0.13005474669423572,1.030935723815012,-0.6036454906846886,0.11232618564386816,1.0399761075144873,0.9227861862307014,1.6529110355113925,1.6321082299612413,3.8082470573207936,0
4.109025469541743,3.1614852044198503,0.8804795726496465,2.7402884389713313,0.08416485149231379,-0.21619490359565152,0.6445704159867078,-1.4911151226316275,-1.0846041431976279,0.6377211980041448,1.0122192086847743,1.5152803440898381,1.8251307784507456,3.775279378139058,0
4.3487887737436886,3.238548755776108,1.2894488449040573,3.166621504882818,0.338309697174872,-0.3031795718391794,0.8701072379547807,-1.278593143686471,-0.22392298047191747,1.3421578444149056,1.935586128827475,2.341064492619104,2.361909318935721,4.169291155543835,0
4.796513227363979,3.566350788862202,2.484473000262122,3.9278457256328063,0.169154848587436,-1.2127182873566407,0.09674838602529527,-1.4205052143176276,-1.346455446094714,1.8451399995586613,2.501220959153937,3.3743017321203626,2.9631682769204097,4.366137006968624,0
4.301085541568274,3.2768925715728763,1.5727229135420353,3.197497994336042,-0.169154848587436,-0.9526087939681691,0.12941667221565434,-2.520496825209786,-2.431059589292342,0.57035167657398,1.637669631951232,2.238345000972799,2.27607499693929,3.8082470573207936,0
4.093124392149929,3.0648738254025125,1.0380584376711914,2.801447639234436,-0.25414484568255824,-0.8656241257246413,0.5157819800439587,-2.5917989875268796,-1.7950307978543678,0.7718061678409256,1.4588035870430864,2.203433801197549,1.9540916134502468,3.7916031804523413,0
4.172941564940162,2.8724029068932464,1.100599465812072,2.9534549719270746,-0.25414484568255824,-0.8656241257246413,0.354325257910822,-2.627103941683911,-1.6827046122104996,1.0066183833111793,1.9652035583414995,2.8231075972077444,2.2115945794395397,4.038060587927289,0
4.093124392149929,2.6795560686212583,0.9123632340547586,2.7711649284245556,-0.29622727142871513,-0.5632890652276508,0.2902451580758858,-2.733711058158036,-1.6083067489918002,0.7044366464107609,1.9059686993135034,2.410215522943142,2.23336718794593,3.7916031804523413,0
3.789444992549537,2.428817586891405,0.534664475870788,2.1619480403672062,-0.4653821200160761,-0.6924993005796977,0.45107364393611726,-2.520496825209786,-1.196930328841496,0.7718061678409256,1.2805182760469929,1.6529110355113925,1.9972181264533553,3.545465847532563,0
3.7414299745429043,2.3130342999756746,0.7235138549627733,2.283672662250018,-0.38121726852383736,-0.9095387155175381,0.354325257910822,-2.271977638104504,-1.3085271236695453,0.603709400777288,1.3397531350750418,1.8590213880305242,1.975445517946927,3.742631773512521,0
3.997094356136664,2.3325821276367718,1.1637536412876244,2.8317303500442628,0.2112372743335929,-0.5632890652276508,0.354325257910822,-1.7749392638939405,-1.0094768891631094,-0.03335772420330801,1.489001750469163,2.4786951840406584,1.8896111959504962,3.8408946619473308,0
4.237169446169828,2.4479894947897805,1.5095687380664828,3.044896883000006,0.507464545762308,-0.6494292221289898,0.4837419301264763,-1.1006838648952522,-0.33624916611578565,0.503636228167364,1.4588035870430864,2.6512370752374013,1.975445517946927,3.906509945755604,0
4.380902714358507,2.5250530461460383,1.9185380103208938,3.28834612676563,0.29622727142871513,-1.7320927627914715,0.16145672213310816,-1.4911151226316275,-0.4485753517596538,1.5769700598851593,1.994820987855524,2.7888677666589556,2.5984770844380436,4.202258834725541,0
4.42891773236514,2.48670923034927,2.0755037280077113,3.440947238101612,0.29622727142871513,-1.8621475094857072,-0.12878843594277764,-2.094760613316316,-1.1590020064163273,1.6103277840884078,2.59065398160801,3.0990403492772534,3.092129111919911,4.317165600028804,0
4.3169866189600885,2.37092594343354,1.792229659369733,3.075179593809887,0.3803921229210289,-0.7794839688233023,0.258205108158432,-1.8815463803680657,-1.3085271236695453,1.3081460471879893,2.3229356481577907,2.68547690578619,2.8559800504273363,4.070708192553855,0
4.093124392149929,2.255518576280514,1.3526030203796098,2.8928895503073675,0.3803921229210289,-0.043070078450707906,0.7413188020120031,-1.8815463803680657,-1.2713281920601955,1.107345628944652,1.7271026544053576,1.893932587805713,2.340555414439041,3.8082470573207936,1
3.885163242731584,2.158907197263176,1.0380584376711914,3.1363387940729375,0.5495469715083898,-0.043070078450707906,0.7092787520945493,-2.307974846264566,-1.7206329346356681,0.6710789222074528,1.3699512985010656,1.5837600051874152,2.083052448449786,3.627725008209259,1
3.6453999385296103,2.043123910347429,0.8804795726496465,3.01461417219018,0.507464545762308,-0.08614015690141581,0.5478220299614125,-1.9528485426851594,-1.4587816317385822,0.3688971853070344,1.2503201126209689,1.274258791795579,1.9972181264533553,3.3649437984210278,1
3.5814838431311915,1.8506529918381625,0.7860548831036538,2.4968391952057614,0.2533197000797498,0.08698466824352782,0.612530366069254,-1.171986027212346,-0.6732277230473901,0.6710789222074528,1.489001750469163,1.1017169005987746,2.23336718794593,3.397911477602734,1
3.75733105193469,1.8311051641770653,0.8179385445087659,2.466556484395881,0.2112372743335929,-0.4332343185334151,0.3869935441011811,-1.3845080061575024,-0.48577428336893724,0.9392488618810144,1.7567200839193293,1.342738452893095,2.5984770844380436,3.627725008209259,1
3.86926216533977,2.004780094550661,0.9749042621956391,2.8317303500442628,0.3803921229210289,-1.2127182873566407,-0.25757687188552675,-1.8462414262110343,-0.4485753517596538,1.14070335314796,1.6974852248913332,1.3769782834418836,2.5553505714349734,3.6770164897042483,1
3.837148224724951,2.043123910347429,0.9436337481251988,2.801447639234436,0.42329969426999425,-1.3427730340508763,-0.6766104659041902,-1.7396343097369091,0.0751272540345184,1.5769700598851593,1.8757705358874268,1.4118894832170723,2.5553505714349734,3.7916031804523413,1
3.8533610879479556,1.8311051641770653,0.9749042621956391,2.466556484395881,0.507464545762308,-1.428913190952292,-0.41840535774578674,-1.810936472054066,0.0,1.7110550297218805,2.3525530776718155,1.8590213880305242,2.8773339549239787,3.9724453041190166,1
3.837148224724951,1.638634245667799,1.1637536412876244,2.283672662250018,0.676619394349669,-1.558967937646528,0.19349677205059054,-1.9881534968421908,-1.0094768891631094,1.509600538454935,2.2631200552177426,2.1000429403247836,2.8773339549239787,3.8082470573207936,1
3.6135977837460103,1.4457874073958108,0.6603596794872209,2.0402234184843944,0.676619394349669,-1.1688036975638207,0.45107364393611726,-2.0594556591592847,-1.6455056806011499,0.8051638920442337,1.6672870614652566,1.6529110355113925,2.4050358319387914,3.447202959097724,1
3.4695527297261117,1.3300041204800805,0.1263083509511048,1.8573395963385313,0.507464545762308,-0.5193744754347541,0.45107364393611726,-2.307974846264566,-1.9824842375327543,0.034011797226916274,1.19108525359292,1.170867930922813,1.9113838044569242,3.299328514612755,1
3.453651652334298,1.1758770177675821,0.09442468954599265,1.705332263645893,0.5495469715083898,-0.3031795718391794,0.41903359401866347,-2.520496825209786,-2.0568821007513876,-0.2348122154702536,1.0122192086847743,0.9640862091772202,1.6321082299612413,3.1844217493094926,1
3.357621616321032,0.9830301794955941,0.03188366140511213,1.157274575851594,0.676619394349669,-0.3031795718391794,0.4837419301264763,-2.271977638104504,-1.7950307978543678,-0.1340849698367808,1.2207026831069445,1.170867930922813,1.8469033869571736,3.200745551622776,1
3.213576562301134,0.925138536037729,0.0,0.9743907537057314,0.6345369686035871,-0.4332343185334151,0.612530366069254,-1.9528485426851594,-1.4208533093134135,0.3021817369004184,1.6672870614652566,1.6529110355113925,2.2978476054456802,3.299328514612755,1
3.1817744075175054,0.790183341223606,0.1263083509511048,1.2178399974713554,0.8886818142861453,-0.21619490359565152,0.612530366069254,-1.7749392638939405,-1.1218030748069776,0.7384484436376176,1.8461531063734022,1.6529110355113925,2.1902406749428596,3.135130267814503,1
3.277804443530771,0.6744000543078758,0.1888493790919853,1.0961153755885433,1.4382287857945353,-0.043070078450707906,0.5478220299614125,-1.4205052143176276,-0.560901537403522,1.14070335314796,1.8461531063734022,1.4118894832170723,2.147532865949537,3.217389428491228,1
3.5016666703409305,0.9059666281393364,0.2201198931623698,1.0961153755885433,1.6073836343819712,-0.8656241257246413,0.5478220299614125,-0.7815547694759075,0.5237026057941059,1.9458672451921342,2.38217050718584,1.6871508660601813,2.898687859420659,3.7096640943307855,1
3.5814838431311915,1.0022020873939868,0.3776987581839706,1.2178399974713554,1.3961463600483783,-1.558967937646528,0.41903359401866347,-0.6749476530017824,0.93507902594441,2.5829343701726706,2.888570478484253,2.2725848315215877,3.457239008412025,3.742631773512521,1
3.357621616321032,0.7322916977657409,0.2201198931623698,1.065832664778663,1.4382287857945353,-1.3427730340508763,0.4837419301264763,-1.3138980978435024,-0.411376420150304,2.146667663435531,2.59065398160801,2.1691939706488217,3.02764869442016,3.3322961937944613,1
3.2615915803077664,0.751839525426838,0.1263083509511048,1.126398086398424,1.8194460543183726,-0.9956788724188771,0.6445704159867078,-1.8815463803680657,-1.346455446094714,1.3755155686182137,2.1440696032496454,1.6871508660601813,2.5553505714349734,3.3322961937944613,1
3.405636634327665,0.8480749846814712,0.2520035545675377,1.126398086398424,1.3540639343022214,-0.8656241257246413,0.6766104659041902,-1.810936472054066,-0.8971507035192413,1.241430598781433,2.1144521737356206,1.8247815574817356,2.6198309889347238,3.496174366037573,1
3.293705520922585,0.38531775678125446,0.0631541754755524,0.45661577672131326,0.5495469715083898,-0.7794839688233023,0.5798620798788949,-1.6690244014229092,-0.8971507035192413,1.107345628944652,2.0546365807955724,1.9973234486784788,2.6411848934314044,3.447202959097724,1
3.1658733301257196,0.09623545925463321,-0.1256952036164329,0.0914419110729314,0.9307642400323022,-0.9956788724188771,0.41903359401866347,-1.9528485426851594,-1.5331794949572817,0.7718061678409256,1.8757705358874268,1.790541726932947,2.5984770844380436,3.414235279916017,1
3.101645448896054,0.15412710271249838,-0.28266092130330606,0.1828838221458628,1.014929091524541,-0.9095387155175381,0.612530366069254,-1.9881534968421908,-1.5703784265666314,0.2688240126971699,1.5784347729232358,1.4118894832170723,2.319201509942361,3.151454070127786,1
2.8618821446941087,-0.019547827661097104,-0.5027808144657316,-0.030282710809880566,0.5495469715083898,-0.34624965028988725,1.192392445948149,-1.6690244014229092,-1.2341292604508458,-0.03335772420330801,1.1312696606528716,1.2393475920203292,1.8251307784507456,2.856025255713018,1
3.021828276105793,0.07706355135625774,0.0,0.1828838221458628,1.14200151436582,-0.7364138903725944,1.030935723815012,-1.562417284948784,-0.8599517719098915,0.4029089825338912,1.3995687280150901,1.5495201746386267,2.0399259354466777,3.299328514612755,1
3.5493699025163448,0.40448966467964703,0.8492090585792063,0.8223834210130929,1.7344560572232504,-1.6459526058900558,0.4837419301264763,-1.455810168474659,-0.14952511725321793,1.4088732928214622,2.6202714111219816,2.341064492619104,3.092129111919911,4.070708192553855,1
3.677513879144457,0.2890822975266213,0.9749042621956391,0.7915069315598686,1.4382287857945353,-1.428913190952292,0.612530366069254,-0.9587717942640955,0.18745343967838657,1.8117822753553534,3.0674365233923986,2.7546279361101673,3.5644272349050983,4.087352069422279,1
3.5016666703409305,0.2890822975266213,0.8179385445087659,0.7000650204869372,1.7773636285722156,-0.8225540472739334,0.9988956738975584,-1.0300739565811892,-0.22392298047191747,1.241430598781433,2.471603529639913,2.4786951840406584,3.02764869442016,3.7259878966440687,1
3.4695527297261117,0.5394448594937529,0.9123632340547586,1.0355499539687822,2.2427457485883666,-0.8656241257246413,0.9988956738975584,-1.4205052143176276,-0.48577428336893724,1.0733338317177357,2.501220959153937,2.3068246620703152,2.6843114064344746,3.7916031804523413,1
3.485453807117926,0.2503625619671487,0.8804795726496465,1.004673464515612,1.8194460543183726,-0.8656241257246413,0.9988956738975584,-1.2425959355264087,-0.560901537403522,1.7110550297218805,3.0076209304522976,2.616997244688674,3.00629478992348,4.021416711058866,1
3.5493699025163448,0.03834381579676806,0.9123632340547586,0.8223834210130929,1.6502912057309365,-0.38931972874051834,1.1603523960306665,-1.0653789107382206,-0.33624916611578565,2.046594490825607,3.037238359966322,2.9264984580805105,3.285570364419163,4.054384390240572,1
3.5814838431311915,0.2890822975266213,1.0380584376711914,0.9743907537057314,1.8615284800645295,-0.08614015690141581,1.289140831973444,-0.8521646777899703,0.3741774885409543,1.7777704781284966,2.8589530489702284,2.7197167363349783,3.1352556249229813,3.9887691064323,1
3.533468825124559,0.21201874617038063,1.0061747762660793,0.8526661318229194,1.5232187828896575,-0.13005474669423572,1.610797803693907,-0.10660711647412516,0.9730073483696449,1.8784977237619693,2.8287548855441518,2.5478462143646357,3.00629478992348,3.9558014272505932,1
3.6294988611378245,0.2890822975266213,1.0061747762660793,0.8526661318229194,1.6073836343819712,-0.34624965028988725,1.6755061398017486,0.24851918710521878,0.8606811627257767,2.3481221547024766,2.8589530489702284,2.8231075972077444,3.177963433916342,4.005092908745583,1
3.5493699025163448,0.5781645950532426,1.0693289517416318,1.0355499539687822,1.9036109058106863,-0.6063591436783587,1.1603523960306665,-0.17790927879128185,0.4121058109661229,2.4154916761326413,2.680087004062083,2.68547690578619,3.049002598916841,3.775279378139058,1
3.1976754849093196,0.21201874617038063,0.8492090585792063,0.6697823096770567,1.6073836343819712,-0.8656241257246413,1.030935723815012,-0.3551263035794069,0.4121058109661229,1.9792249693954422,2.3229356481577907,1.8247815574817356,2.5767044759316535,3.3486199961077445,1
3.05394221672064,-0.23156657383146062,0.34642824411353035,0.1828838221458628,1.4382287857945353,-1.1257336191131129,1.0956440599228536,-0.39043125773643833,0.5616309282193408,1.6103277840884078,2.1440696032496454,1.5837600051874152,2.5339966669382927,3.3486199961077445,1
3.037729353497607,0.0,0.09442468954599265,0.12172462188281197,1.3961463600483783,-1.3427730340508763,0.8701072379547807,-0.9587717942640955,-0.07439786321869953,1.7110550297218805,1.935586128827475,1.96241224890329,2.5553505714349734,3.3486199961077445,1
2.8300799899104803,0.15412710271249838,0.09442468954599265,0.15200733269269254,1.0999190886196633,-1.2127182873566407,0.7413188020120031,-1.3492030520005338,-0.6352994006221552,1.6103277840884078,1.4588035870430864,1.4118894832170723,2.1257602574431087,2.9709320210162513,1
2.8138671266874757,0.17329901061089095,0.0631541754755524,0.15200733269269254,1.1849090857148605,-1.0395934622117737,0.8053989018469393,-1.3492030520005338,-0.4485753517596538,0.9732606591078712,1.3101357055610172,0.8264555177557268,1.6534621344579217,2.7740861695914623,1
2.990026121322193,0.30825420542501386,0.03188366140511213,0.39605035510160613,1.6502912057309365,-0.9956788724188771,0.9348155740626222,-1.278593143686471,-0.4485753517596538,0.7384484436376176,1.4291861575291147,1.2393475920203292,1.610754325464561,2.790409971904745,1
2.990026121322193,0.32742611332338933,0.1263083509511048,0.6394995988672301,1.7344560572232504,-0.6063591436783587,1.2244324958656028,-1.0300739565811892,-0.37344809772506904,1.2080728745781248,1.3397531350750418,1.8247815574817356,1.8037768739541034,2.8070538487731684,1
2.8780950079171133,0.21201874617038063,0.15757886502154503,0.6697823096770567,1.8194460543183726,-0.3031795718391794,1.2564725457830852,-0.63895044484172,0.18745343967838657,1.3755155686182137,1.2207026831069445,1.5152803440898381,1.6321082299612413,2.7247946880964724,1
2.7661638945120335,0.15412710271249838,-0.03127051407044026,0.3348911548385553,1.9465184771596515,-0.7794839688233023,0.8380671880372983,-0.8521646777899703,0.0751272540345184,0.8051638920442337,1.101652231138847,0.8956065480797041,1.223871820466057,2.5442726389849373,1
2.7979660492956615,0.13495519481412288,-0.03127051407044026,0.21316653295574337,1.7344560572232504,-0.9526087939681691,0.6766104659041902,-1.3492030520005338,-0.6732277230473901,0.7044366464107609,1.2503201126209689,0.9983260397260088,1.5245012994584204,2.8070538487731684,1
2.990026121322193,0.13495519481412288,0.09442468954599265,0.39605035510160613,1.6502912057309365,-0.34624965028988725,0.7092787520945493,-1.3492030520005338,-0.7848245178753731,1.107345628944652,1.6080522024372603,1.4461293137658608,2.1902406749428596,3.118806465501249,1
3.069843294112454,0.2503625619671487,-0.06254102814088051,0.39605035510160613,1.8194460543183726,-0.21619490359565152,0.41903359401866347,-1.5271123307917527,-0.9350790259444762,0.8385216162475416,1.3699512985010656,1.274258791795579,1.8251307784507456,2.7740861695914623,1
2.925798240092527,0.26953446986552415,-0.2513904072328658,0.21316653295574337,1.6502912057309365,-0.6063591436783587,0.258205108158432,-1.7396343097369091,-0.8971507035192413,0.2688240126971699,0.893168756716677,0.723064656882961,1.1598101069760542,2.4456896759949585,1
2.7820649719038477,-0.038719735559472584,-0.2513904072328658,0.21316653295574337,1.4382287857945353,-0.6924993005796977,0.41903359401866347,-1.2425959355264087,-0.1115967948280493,0.7044366464107609,1.2207026831069445,0.8264555177557268,1.6321082299612413,2.856025255713018,1
2.749951031289029,-0.057891643457865155,-0.18823623175731344,0.27432573321879417,1.4811363571435006,-0.7364138903725944,0.354325257910822,-1.2072909813693773,-0.37344809772506904,1.0733338317177357,1.4588035870430864,1.2051077614715406,1.9113838044569242,2.8889929348947243,1
2.670133858498768,0.019171907898392574,-0.22011989316242556,0.15200733269269254,1.2690739372070992,-1.0395934622117737,0.16145672213310816,-2.023458450999222,-1.5703784265666314,0.16809676706369708,0.744500875234608,0.9298463786284927,1.0953296894763036,2.330782910691696,1
2.590004899877316,-0.19284683827198806,-0.15696571768687317,0.030282710809880566,0.9307642400323022,-1.1257336191131129,0.354325257910822,-1.7749392638939405,-1.0094768891631094,-0.2681699396735021,0.5656348303264622,0.6545849957853838,0.7947002104839404,2.2818115037518756,1
2.6062177631003207,-0.23156657383146062,0.03188366140511213,0.15200733269269254,1.4382287857945353,-0.7364138903725944,0.4837419301264763,-0.6749476530017824,0.4121058109661229,0.8051638920442337,1.3397531350750418,0.9983260397260088,1.588981716958171,2.5605964412982205,1
2.670133858498768,0.0,0.03188366140511213,0.3348911548385553,1.9036109058106863,-0.21619490359565152,0.5478220299614125,-0.8168597236329389,0.1502545080690368,1.4762428142516864,1.7567200839193293,1.4118894832170723,2.083052448449786,2.6921470834699064,1
2.749951031289029,-0.019547827661097104,0.1263083509511048,0.27432573321879417,1.6073836343819712,-0.26010949338847145,0.7733588519294855,-1.455810168474659,-0.5981004690128054,0.9732606591078712,1.4291861575291147,1.5152803440898381,1.782422969457423,2.6428556019749165,1
2.7820649719038477,0.03834381579676806,0.2201198931623698,0.48749226617453756,1.5232187828896575,-0.9095387155175381,0.7092787520945493,-1.4205052143176276,-0.5237026057941722,0.603709400777288,1.0122192086847743,1.3084986223443065,1.3528326554655583,2.494981157489948,1
2.7820649719038477,0.15412710271249838,0.34642824411353035,0.9743907537057314,1.8615284800645295,-1.3427730340508763,0.2902451580758858,-1.3138980978435024,-0.48577428336893724,0.6377211980041448,1.0122192086847743,1.0332372395012586,1.310124846472236,2.511304959803231,1
2.8138671266874757,-0.07743947111896227,0.534664475870788,0.8829488426328,1.5653012086358142,-1.471983269403,-0.06408009983493619,-1.6690244014229092,-0.560901537403522,0.8385216162475416,1.3101357055610172,1.274258791795579,1.6748160389546018,2.8070538487731684,1
2.749951031289029,-0.26991038962822866,0.4402397863247953,0.24344924376562393,0.8886818142861453,-1.6020380160972358,0.03266828619035907,-2.0594556591592847,-0.8599517719098915,0.8051638920442337,1.2207026831069445,1.5495201746386267,1.6748160389546018,2.7740861695914623,1
2.4780737864722364,-0.4244134121034487,0.03188366140511213,-0.15200733269269254,0.676619394349669,-1.6020380160972358,0.354325257910822,-1.7043293555799406,-0.5237026057941722,0.503636228167364,0.8333531637766286,1.2393475920203292,1.223871820466057,2.347426787560148,1
2.4141576910737896,-0.7326676175284454,0.0631541754755524,-0.12172462188281197,0.845774242937105,-1.5158978591958199,0.5478220299614125,-0.7102526071588138,0.5237026057941059,0.8385216162475416,1.2207026831069445,1.342738452893095,1.3959591684686288,2.4293658736816752,1
2.558202745093688,-0.5977124227143397,0.15757886502154503,0.0914419110729314,1.14200151436582,-1.3858431125015842,0.258205108158432,-0.8874696319470018,-0.29905023450643586,0.9392488618810144,1.4291861575291147,1.5152803440898381,1.7610690649607426,2.593564120479927,1
2.318439440891743,-0.5014769634596893,-0.28266092130330606,0.06115920026305083,0.845774242937105,-1.3858431125015842,-0.16082848586023146,-2.4145819627386915,-2.3559323352578234,-0.2348122154702536,0.5360174008124378,0.7922156872069382,0.9663688544768023,2.0353540962769276,1
2.0465621960749503,-0.6943238017316774,-0.34581509677885847,-0.06115920026305083,0.5495469715083898,-1.471983269403,-0.354325257910822,-2.7690160123150047,-1.9824842375327543,-0.6037094007772286,0.17828531099614636,0.4135634434910635,0.34375599199543355,1.871155849478676,1
2.2224094048784773,-0.5593686069175716,0.1263083509511048,0.15200733269269254,1.0999190886196633,-1.6020380160972358,-0.38636530782830436,-1.5271123307917527,-0.37344809772506904,0.603709400777288,0.9529843496567253,0.8606953483044544,1.1598101069760542,2.396718269055138,1
2.30222657766871,-0.44358532000182416,0.0631541754755524,0.24344924376562393,1.3961463600483783,-1.0826635406624048,0.0,-0.63895044484172,-0.1115967948280493,1.3081460471879893,1.4291861575291147,1.067477070050047,1.7392964564543525,2.478657355176694,1
2.2383104822702915,-0.7713873530879352,0.03188366140511213,0.030282710809880566,1.0578366628735814,-0.6494292221289898,0.354325257910822,-0.8168597236329389,-0.5237026057941722,1.0733338317177357,1.2503201126209689,1.2393475920203292,1.50314739496174,2.298135306065159,1
2.4141576910737896,-0.7713873530879352,0.4089692722543551,0.06115920026305083,1.0578366628735814,-1.2127182873566407,-0.09612014975241857,-1.3845080061575024,-0.7848245178753731,0.9732606591078712,1.4291861575291147,1.4803691443146494,1.5676278124614906,2.511304959803231,1
2.350241595675343,-0.4627572279002167,0.15757886502154503,0.15200733269269254,1.14200151436582,-1.7320927627914715,-0.6119021297963773,-1.3492030520005338,-0.5237026057941722,1.0066183833111793,1.5784347729232358,1.2393475920203292,1.696588647460992,2.5442726389849373,1
1.9826461006765035,-0.7326676175284454,-0.6284760180821087,0.0914419110729314,0.7195269656987093,-1.2988584442580564,-0.28961692180300913,-1.171986027212346,-0.29905023450643586,0.8725334134743984,1.101652231138847,0.8264555177557268,1.50314739496174,2.15026086158019,1
1.966433237453499,-1.0604696506145563,-0.565934989941284,0.030282710809880566,0.5495469715083898,-0.6063591436783587,0.3222852079933682,-1.4911151226316275,-1.1218030748069776,0.3021817369004184,0.5360174008124378,0.6196737960101951,1.1380374984696262,1.969738812468655,1
2.1263793688652117,-0.9255144558004335,0.0,0.06115920026305083,0.676619394349669,-0.6924993005796977,0.4837419301264763,-1.455810168474659,-1.346455446094714,-0.10007317260986452,0.2973357629641909,0.5162829351374292,0.6870932799811194,1.969738812468655,1
2.1104782914733975,-0.8097311688847032,0.0631541754755524,0.06115920026305083,0.5495469715083898,-0.9095387155175381,0.3222852079933682,-0.9587717942640955,-0.6352994006221552,0.1340849698367808,0.35715135590429203,0.6196737960101951,0.5367785404849378,1.969738812468655,1
2.206508327486663,-0.9063425479020409,-0.06254102814088051,0.06115920026305083,0.29622727142871513,-0.9095387155175381,0.258205108158432,-0.9587717942640955,-0.822752840300608,0.2688240126971699,0.47620180787233657,0.7573044874316884,0.8805345324803713,2.1176132569536237,1
