"AF3","F7","F3","FC5","T7","P7","O1","O2","P8","T8","FC6","F4","F8","AF4","eyeDetection"
-0.6208674122274823,1.729727140644908,0.5487489287740627,2.077950613682632,3.0081278873776673,2.5234342406786476,1.5483676309582746,0.7095424729385492,-0.1882393175095262,-0.22717075545939217,-0.5710795926881094,0.03807767753397314,-0.27025511670868324,-1.2961620290914442,0
-0.9710366327237744,1.3260616735864947,-0.25617797845241447,1.5220802764876726,2.3719679111950915,1.9373859682090582,1.3394155415933227,0.580591934860221,-0.046830269234093135,-0.6806283334776173,-0.9738478834027381,-0.8802663100497055,-0.736972286343854,-1.5765702045549714,0
-1.00301130445351,1.40289679034321,-0.25617797845241447,1.5220802764876726,2.5421613593685737,1.712455896616499,1.0463928850229225,0.6774620951727532,1.1771844148643205,0.18120624462717821,-0.9063923810554227,-0.8802663100497055,-0.540510233417323,-1.4187765662307985,0
-0.8757334849468649,1.5565670238566232,0.0,1.6390755733305673,3.1774951537639566,2.2080049605938066,1.4651132828519262,0.96744354909532,1.4600025114151864,0.7699055564402872,-0.4702237930620037,-0.5360739699878168,-0.024437962681113378,-1.2961620290914442,0
-0.7642877844520273,1.4415017514453512,-0.14628547516085655,1.4924034207031114,3.558364957686234,2.8388635207634887,2.0511585959926895,0.8384930110169346,0.8484542896525983,0.31733191132270167,-0.4027682907146883,-0.6891313012517746,-0.14758612756430434,-1.2787432508348717,0
-0.7323131127223199,1.5760569071314947,-0.10989250329155793,1.4050849796447782,3.601326410623276,2.8388635207634887,1.88383368068093,0.7743322554852856,1.3185934631397533,0.18120624462717821,-0.5710795926881094,-0.8041109549817591,-0.3934032815918742,-1.2787432508348717,0
-0.7642877844520273,1.7683321017470666,0.03639297186929861,1.6093987175460058,3.3889976912999447,2.2080049605938066,1.4651132828519262,0.8064126332511388,1.5545812904565264,0.4985381559498799,-0.6719353923142152,-0.7272089787857476,-0.3934032815918742,-1.401357787974226,0
-0.7642877844520273,1.6528920238882099,-0.14628547516085655,1.4050849796447782,2.838760620991378,2.02788517670134,1.799763113475482,0.580591934860221,0.8484542896525983,0.13524173379488386,-0.6378801872456306,-0.8041109549817591,-0.49163430805513975,-1.559151426298399,0
-0.7642877844520273,1.5760569071314947,-0.07349953142225932,0.877750080704181,2.7957991680544114,2.477745319886378,2.3441812525630894,0.7095424729385492,0.8484542896525983,0.04508057793165475,-0.503624090340794,-0.6510536237178014,-0.6387412598805885,-1.4187765662307985,0
-0.7481452317341275,1.6142870627860513,-0.18267844703015515,0.7607547838612865,3.1774951537639566,2.477745319886378,2.0095314219394966,1.0322333316419994,1.3185934631397533,0.36241248925435643,-0.4702237930620037,-0.38301663872392694,-0.4667171696351708,-1.3661786867894075,0
-0.81178414148745,1.4992217903747966,-0.8049269072264771,0.790431639645796,3.0502631585274416,2.1175057521015246,1.5483676309582746,0.8705733887827878,1.1771844148643205,0.0901611558633095,-0.6378801872456306,-0.6510536237178014,-0.3934032815918742,-1.559151426298399,0
-1.050818095195025,1.3451767514137816,-1.1709973889704495,0.7025424898223631,2.584296630518348,2.162316039801537,1.5483676309582746,0.48372177454768867,0.377396875592206,-0.1820901775277374,-0.8395917864979016,-1.1102256175096747,-0.5160722707362532,-1.559151426298399,0
-1.050818095195025,1.3069465957592248,-1.1346044171012157,0.6146533399989302,2.668567172817896,2.162316039801537,1.3810427156464782,0.289981453922624,0.047748509807246785,-0.0910450887638687,-0.7053356895930055,-1.1102256175096747,-0.49163430805513975,-1.4187765662307985,0
-0.7959520224756425,1.3451767514137816,-0.9883189419403593,0.4388750403520646,2.838760620991378,2.343314456786181,1.088020059076115,0.48372177454768867,0.6124664623358254,-0.1820901775277374,-0.5710795926881094,-0.766033277447786,-0.31961021780972204,-1.2613244725783306,0
-0.7164809937105123,1.4220118681704796,-0.402463453613271,0.3806627463131931,2.668567172817896,2.3881247444862734,1.1304634522283705,0.7416228507044023,0.942114828120701,-0.0910450887638687,-0.503624090340794,-0.3441923400618207,-0.1720240902454177,-1.016095398299622,0
-0.6845063219808049,1.4220118681704796,0.07349953142225932,0.7025424898223631,2.626431901668122,1.6667669758243093,1.2137178003347189,0.3868516142351563,0.2828180965508661,0.588699311813109,-0.2685121938097922,-0.45917199379180534,-0.04935510110103879,-0.8934808611602676,0
-0.6050352932156747,1.4797319070999249,-0.03639297186929861,0.8486439336847194,2.753663896904637,1.712455896616499,1.2977883675401298,0.2579010761567709,0.2828180965508661,0.40749306718593076,-0.16765639418368644,-0.3061146625278476,-0.04935510110103879,-0.9283184176734124,0
-0.6686742029689973,1.5951719849587815,0.03639297186929861,0.7316486368418248,3.0081278873776673,2.7483643122711268,1.8413902875286747,1.0001529538762033,1.4600025114151864,0.22628682255883295,-0.10085579962610573,0.19113500879793088,-0.09823102646326555,-0.963497518858231,0
-0.6528420839571898,1.5565670238566232,0.18267844703009026,0.8195377866652577,2.9230311632909265,2.793174599971219,1.8413902875286747,1.3222147855646234,1.4131722421810933,0.9060312231358106,0.06745550234731537,0.1149796537299846,0.0,-0.8234642034623042,0
-0.5094217117326447,1.4797319070999249,0.03639297186929861,0.7607547838612865,2.457064635281833,1.9373859682090582,1.256161193486974,0.8384930110169346,0.4710574140603923,0.8609506452041559,-0.06680059455758072,-0.3441923400618207,0.24581715402756987,-0.70084966632295,0
-0.5888927404977748,1.4415017514453512,0.14628547516085655,0.6437594870183919,2.2026006448088022,1.846886759716776,1.172090626281526,0.6126723126260168,0.6592967315698349,0.4525736451175855,-0.4027682907146883,-0.42109431625783217,-0.14758612756430434,-0.9809162971148033,0
-0.7959520224756425,1.2492265568297967,0.14628547516085655,0.790431639645796,2.3719679111950915,2.2528152482938992,1.2977883675401298,0.7416228507044023,1.1771844148643205,0.36241248925435643,-0.6719353923142152,-0.26803698499394235,-0.8845584139081584,-1.2787432508348717,0
-0.8279266942053499,1.1529015567982097,-0.3660704817439724,0.5855471929795205,2.3719679111950915,2.2976255359939115,1.256161193486974,0.7743322554852856,0.8952845588866915,0.31733191132270167,-0.6044798899668997,-0.5360739699878168,-0.4178412442729876,-0.8934808611602676,0
-0.8437588132171575,1.0569513622142248,-0.47596298503553036,0.05878300280397117,1.9910981072728144,2.2528152482938992,1.4651132828519262,1.0963940871737055,1.1771844148643205,0.6797444005770581,0.0,-0.45917199379180534,0.7863273874448928,-0.4556205920442724,0
-0.90739772297048,0.7496108951873983,-0.10989250329155793,0.05878300280397117,1.9910981072728144,2.2976255359939115,1.6740653722168783,1.1932642474862378,1.3185934631397533,0.8158700672725816,0.36936799343583837,0.03807767753397314,0.8845584139081584,-0.5082184714856633,0
-0.7164809937105123,0.8455610897713832,0.14628547516085655,0.6146533399989302,2.3719679111950915,2.0726954644014324,1.506740456905119,0.4195610190159824,0.32964836578495926,0.4525736451175855,0.06745550234731537,0.0,0.49163430805513975,-0.5082184714856633,0
-0.4774470400029373,1.2874567124843532,0.14628547516085655,0.8486439336847194,2.499199906431607,1.8925756805089657,1.256161193486974,-0.16165994285921154,0.2828180965508661,0.4985381559498799,0.23511189653100184,-0.03807767753390523,0.7125343236627406,-0.385603934346309,0
-0.5730606214859673,1.2301114790025098,0.03639297186929861,0.7607547838612865,2.3719679111950915,2.0726954644014324,0.9206951437643188,0.289981453922624,0.800705779845268,0.6337798897447637,0.6044798899668402,0.07690197619607937,0.8356824885459316,-0.5782351291836267,0
-0.6528420839571898,0.9801162454575096,0.10989250329155793,0.790431639645796,2.626431901668122,2.4329350321862857,1.0463928850229225,0.6453817174069002,0.5656361931017322,0.588699311813109,0.4368234957832133,0.15305733126395774,0.540510233417323,-0.6482517868815589,0
-0.5572285024741597,0.9992313232847965,0.21978500658311587,0.790431639645796,2.5421613593685737,2.3881247444862734,1.5483676309582746,0.6126723126260168,0.942114828120701,1.0872374677629888,0.40342319850442293,0.15305733126395774,0.5160722707362532,-0.5082184714856633,0
-0.6208674122274823,0.8841660508735247,0.07349953142225932,0.6437594870183919,2.1604653736590285,2.2528152482938992,1.7581359394223264,1.0322333316419994,1.9310599254755787,1.314408223222381,0.6044798899668402,0.26803698499394235,0.6143032971994751,-0.4382018137877,0
-0.5888927404977748,0.8264460119440964,0.10989250329155793,0.5855471929795205,2.245562097745845,2.3881247444862734,1.799763113475482,1.3870045681113026,1.5068327806492796,0.7699055564402872,0.5036240903407344,0.45917199379187323,0.6636583983005575,-0.4204414908594228,0
-0.3663117732142202,0.9415112843553682,0.7321409634879448,0.6437594870183919,2.2876973688955435,2.3881247444862734,2.1344129440990747,1.6449056442680734,1.9310599254755787,0.8609506452041559,0.4702237930619441,0.6891313012518424,0.7863273874448928,-0.3155872766483457,0
-0.1592524912363526,0.9610011676302399,1.134604417101151,0.7025424898223631,2.245562097745845,2.2080049605938066,2.092785770045882,2.161336823596588,3.3433139270835186,1.90310753503549,0.9404475861239477,1.0721479399757694,0.9827894403714239,-0.017760322928246145,0
-0.143420372224545,0.9992313232847965,1.024711913809593,0.790431639645796,2.4149293641320586,2.162316039801537,1.88383368068093,1.7738561823464016,2.355287070301878,2.4926907797492386,1.4106713791859513,1.3021072474357387,1.179730669036767,0.262647852535281,0
-0.1592524912363526,1.1529015567982097,1.134604417101151,0.9074269364886905,2.5421613593685737,2.2080049605938066,1.88383368068093,1.0963940871737055,1.0366936071621244,2.311484535122141,1.5115271788120572,1.187127593705754,1.3517547592821848,0.2800666307918223,0
-0.12727781950664516,1.2492265568297967,1.134604417101151,0.9953160863121233,2.584296630518348,2.343314456786181,1.59081102411053,1.3549241903454494,1.8364811464342388,2.311484535122141,1.5115271788120572,0.8421886325158002,1.5482168122087159,0.17487087190904044,0
-0.12727781950664516,1.13378647897094,0.6222484601963869,0.9074269364886905,2.668567172817896,2.4329350321862857,1.5483676309582746,1.838645964893138,2.3075385604946312,2.175358868426537,1.4106713791859513,0.5360739699878847,1.4744237484265637,0.0348375565131448,0
-0.2228914009896752,0.9610011676302399,0.10989250329155793,0.790431639645796,2.457064635281833,2.2976255359939115,2.1344129440990747,1.9355161252056703,1.9778901947096719,1.767865801240606,1.343215876838636,0.5360739699878847,1.228606594398994,-0.017760322928246145,0
-0.2548660727193826,0.7687259730146682,0.10989250329155793,0.5267641901754975,2.075368649572287,2.0726954644014324,1.9254608547340857,1.870726342658934,1.8364811464342388,1.6768207124767374,1.074703683028844,0.4210943162579001,1.0077065787913493,-0.15779363832417284,0
-0.3501692204962921,0.5764507783990963,0.07349953142225932,0.11699529684289454,1.906001383185998,1.9373859682090582,1.2137178003347189,1.7738561823464016,1.6482418289247127,1.767865801240606,0.839591786497842,0.30611466252791547,0.9089963765892718,-0.28040817546352714,0
-0.4774470400029373,0.5187307394696681,-0.10989250329155793,-0.1757782996468657,2.0332333784225134,2.0726954644014324,1.4234861087987707,1.6449056442680734,1.6959903387319595,1.4956144678495593,1.0413033857500535,0.45917199379187323,0.9339135150091972,-0.17521241658074524,0
-0.4774470400029373,0.6724009729830813,-0.21978500658311587,0.05878300280397117,2.2026006448088022,2.4329350321862857,1.9670880287872783,1.7096954268147526,1.9310599254755787,1.268443712390167,0.9738478834027381,0.30611466252791547,0.8107653501260061,-0.2452290742787086,0
-0.3979760112378071,0.9032811287008116,-0.14628547516085655,0.6437594870183919,2.3298326400453178,2.3881247444862734,1.6324381981637226,1.6449056442680734,1.8364811464342388,1.314408223222381,0.6378801872456306,0.07690197619607937,0.6636583983005575,-0.36784361141803185,0
-0.3343371014845128,0.9801162454575096,0.25617797845241447,0.790431639645796,2.4149293641320586,1.7572661843165915,1.088020059076115,1.4190849458771555,2.025638704516919,1.4956144678495593,0.9070472888451574,0.6891313012518424,0.7863273874448928,-0.03517910118481855,0
-0.2228914009896752,0.9223962065280814,0.8784264386487365,0.6728656340378536,2.1604653736590285,1.5314574796319351,1.2137178003347189,1.4517943506579818,2.3075385604946312,1.7219012904083921,1.377271081907161,1.3401849249697118,0.9339135150091972,0.29748540904839477,0
-0.07947102876513015,0.9992313232847965,1.0611048856788916,0.8195377866652577,2.2026006448088022,2.2528152482938992,1.6324381981637226,1.6776150490488995,2.025638704516919,2.0392332017310135,1.2764152822810553,1.1102256175096747,0.9827894403714239,0.17487087190904044,0
0.0,1.0955563233163834,1.134604417101151,0.9365330835081522,2.711528625754863,2.56824452837874,1.7165087653691335,1.806565587127285,1.6014115596906195,2.085197712563308,1.343215876838636,1.0340702624417963,1.179730669036767,0.15745209365246804,0
0.0,0.9415112843553682,0.8784264386487365,0.790431639645796,2.457064635281833,2.2976255359939115,1.9254608547340857,1.7738561823464016,1.5068327806492796,1.6317401345450826,1.4781268815332669,1.1490499161717809,1.2779616955000326,0.2448875296070038,0
-0.07947102876513015,0.787841050841955,0.5123559569048289,0.7025424898223631,2.0332333784225134,2.343314456786181,2.176856337251293,1.5159551061896879,1.3185934631397533,1.268443712390167,1.4781268815332669,0.9571682862457848,1.2530445570800637,0.07001665769796335,0
-0.1592524912363526,0.9415112843553682,0.5123559569048289,0.7607547838612865,2.245562097745845,2.2976255359939115,2.0095314219394966,1.2901344077987702,1.0835238763962176,1.540695045781214,1.6457832757169533,0.8421886325158002,1.3517547592821848,0.07001665769796335,0
-0.1114457004948376,1.0760664400414945,0.47596298503553036,0.8195377866652577,2.2026006448088022,2.02788517670134,1.6324381981637226,1.548035483955541,1.5545812904565264,2.085197712563308,1.5449274760908476,0.9190906087118117,1.3268376208622157,0.17487087190904044,0
-0.07947102876513015,1.210621595727638,0.4388564254825047,0.8195377866652577,1.9910981072728144,2.0726954644014324,1.506740456905119,1.9034357474398171,2.448947608770064,2.1302782904949624,1.377271081907161,0.8421886325158002,1.2779616955000326,0.17487087190904044,0
-0.04780679074151501,1.3451767514137816,0.8413198790957758,0.9074269364886905,2.2876973688955435,2.2080049605938066,1.5483676309582746,1.806565587127285,2.355287070301878,1.90310753503549,1.343215876838636,0.804110954981827,1.400630684644368,0.3326645102332133,0
0.04780679074151501,1.2874567124843532,1.2444969203927088,1.2584128270173742,2.499199906431607,2.343314456786181,1.6740653722168783,1.6128252665022202,1.6959903387319595,1.767865801240606,1.3098155795598456,1.0721479399757694,1.400630684644368,0.5427144833271034,0
0.1592524912363526,1.210621595727638,1.3172828641313061,1.4924034207031114,2.457064635281833,2.793174599971219,1.88383368068093,1.7096954268147526,1.6959903387319595,1.9941526237994391,1.243014985002265,1.3401849249697118,1.400630684644368,0.4552790473725676,0
0.3501692204962921,1.4992217903747966,1.6833533458752785,1.6972878673694387,2.7957991680544114,3.199103088548342,2.092785770045882,1.9355161252056703,2.072468973751012,2.311484535122141,1.4440716764647417,1.723201563693571,1.842909891598469,0.42009994618774904,0
0.42995068296751454,1.4220118681704796,1.9759242961969268,1.7560708701734098,2.668567172817896,3.2439133762484342,2.469878993821693,2.3544481172066227,2.6371869262795067,2.7189776023080716,1.7132387780642686,1.799356918761517,2.088727045626039,0.5427144833271034,0
0.12727781950661693,0.7110059340852398,1.5370678707144219,1.0535283803510467,2.075368649572287,3.199103088548342,2.6372039091334893,2.709848380690899,2.684935436086837,2.81002269107194,1.746639075343059,1.5313199337675747,1.5232996737887468,0.47269782562914,0
0.015832119011807574,0.8841660508735247,1.3536758360006047,1.0535283803510467,2.245562097745845,2.883673808463501,2.0511585959926895,2.2582069839091203,1.8364811464342388,1.767865801240606,1.377271081907161,1.378262602503617,0.9827894403714239,0.3326645102332133,0
0.49358959272083713,1.9797223741899082,1.8296388210360701,2.136733616486603,2.753663896904637,2.3881247444862734,1.5483676309582746,1.5159551061896879,0.9889450973547942,0.8609506452041559,0.9070472888451574,1.378262602503617,0.9827894403714239,0.42009994618774904,0
0.8915656039586725,2.440733074730165,2.049423827619251,2.3416180631529304,2.584296630518348,2.343314456786181,1.6324381981637226,1.1291034919545315,0.518805923867639,0.7248249785086325,0.7387359868717362,1.2252052712396593,0.9583514776903105,0.6127311410250667,0
1.0188434234652894,2.2870628412167515,1.939531324327693,1.990061463859199,2.2876973688955435,2.4329350321862857,1.3810427156464782,1.0001529538762033,0.14140904827543305,0.4525736451175855,0.5710795926881094,0.7660332774478539,0.4667171696351708,0.7005081216512762,0
1.2575669434667722,2.5561731525890217,2.012317268066225,2.5168256540346965,2.3719679111950915,2.2528152482938992,1.2137178003347189,1.0963940871737055,0.0,-0.1820901775277374,0.40342319850442293,0.7272089787858156,-0.024437962681113378,0.8231226587906305,0
1.5760719259394491,2.9789536974747217,2.3056018060716004,2.8095992505244567,2.457064635281833,2.2080049605938066,1.256161193486974,0.7095424729385492,-0.4701391734871551,-0.5445026667820938,0.3359676961571076,1.2632829487736323,0.09823102646326555,1.0157538536279171,0
1.6077361639630643,2.9021185807180063,2.561779784524015,2.5465025098192577,2.3298326400453178,2.2976255359939115,1.0047657109697667,0.22582069839091776,-1.0357753665889708,-0.6806283334776173,0.3359676961571076,1.8762588949575285,0.31961021780972204,1.1557871690238437,0
1.5440972542097418,2.5752882304162914,2.6716722878155728,2.5756086568387193,2.457064635281833,2.343314456786181,1.4234861087987707,0.8384930110169346,0.0,-0.4534575780182251,0.537679295409319,2.144295879951471,0.3440481804908354,1.2435641496500534,0
1.3851551966795097,2.1911126466327495,1.9031383524583942,2.1949459105255262,2.245562097745845,2.477745319886378,2.3858084266162822,1.806565587127285,1.6959903387319595,0.22628682255883295,0.7387359868717362,1.9143365724915018,0.24581715402756987,0.9631559741865261,0
0.986868751735582,1.9411174130877666,1.0611048856788916,1.4924034207031114,1.6523635745002359,2.3881247444862734,2.511506167874886,2.0323862855182027,2.1192992429851047,0.31733191132270167,0.3359676961571076,1.4551645786996963,-0.04935510110103879,0.5252957050705309,0
0.8117841414874218,1.9411174130877666,1.5370678707144219,1.8142831642123332,1.863866112036224,2.2080049605938066,2.218483511304486,1.9996768807373193,2.072468973751012,0.4985381559498799,0.2685121938097326,1.4932422562336016,-0.04935510110103879,0.6127311410250667,0
1.1144570049483193,2.1142775298760514,2.341994777940899,2.721710100701024,2.711528625754863,2.613054816078752,2.3441812525630894,1.9996768807373193,1.7896508772001458,1.4045693790856906,0.9738478834027381,2.412332864945413,0.540510233417323,0.9805747524430986,0
1.1622637956898345,2.075672568773893,2.3783877498101975,2.663497806662152,2.753663896904637,2.793174599971219,2.469878993821693,1.806565587127285,1.0366936071621244,1.3594888011540358,1.377271081907161,2.6803698499393556,0.7618894247637794,0.9105580947451352,0
0.8754230512407444,1.8642822963310515,2.159316330910809,2.1070567607020934,2.3298326400453178,2.343314456786181,2.2601106853576787,1.6449056442680734,1.1303541456302273,0.7248249785086325,1.1421591853761592,2.1062182024174976,0.6143032971994751,0.7179268999078486,0
0.9073977229704518,1.9602324909150364,2.2321022746493413,2.2537289133294975,2.626431901668122,2.3881247444862734,1.7165087653691335,1.5159551061896879,1.5068327806492796,0.9511118010674654,1.0079030884712632,1.9524142500254749,0.7125343236627406,0.7705247793492396,0
1.1144570049483193,2.09478764660118,2.3056018060716004,2.633820950877591,2.8808958921411523,2.883673808463501,1.3394155415933227,1.6128252665022202,1.1771844148643205,1.4956144678495593,1.243014985002265,2.182373557485444,0.7618894247637794,0.8231226587906305,0
1.0030113044534819,1.998837452017195,1.9759242961969268,2.6047148038581294,2.4149293641320586,2.928484096163593,1.59081102411053,1.838645964893138,0.7538755106112583,0.9970763118996794,1.1421591853761592,1.9143365724915018,0.5898653345184053,0.6653290204664576,0
0.6686742029689973,1.7874471795743363,1.3172828641313061,2.282835060348959,2.2026006448088022,2.56824452837874,1.88383368068093,1.6128252665022202,0.518805923867639,0.0,0.6044798899668402,1.5313199337675747,0.3934032815918742,0.3326645102332133,0
0.44578280197932213,1.5565670238566232,0.9883189419402943,1.8142831642123332,2.1183301025093293,2.477745319886378,2.0095314219394966,1.838645964893138,0.9889450973547942,-0.31733191132270167,0.5036240903407344,1.570144232429681,0.1720240902454177,0.19263119483731764,0
0.5730606214859673,1.4992217903747966,1.5734608425837207,1.8142831642123332,1.69449884565001,2.56824452837874,2.092785770045882,2.2582069839091203,1.7896508772001458,0.2713674004904073,0.7727911919403209,1.723201563693571,0.27025511670868324,0.4552790473725676,0
0.8754230512407444,1.7488422184721948,2.122209771357783,2.5168256540346965,1.7366341167997088,2.56824452837874,1.9254608547340857,1.9355161252056703,1.4131722421810933,0.6797444005770581,0.6719353923142152,1.723201563693571,0.5898653345184053,0.6127311410250667,0
0.7959520224756143,1.7874471795743363,1.9031383524583942,2.6047148038581294,1.8217308408865251,2.2976255359939115,1.6740653722168783,1.7417758045806058,0.7538755106112583,0.22628682255883295,0.3025673988783172,1.4932422562336016,0.3684861431719052,0.2800666307918223,0
0.6050352932156747,1.5565670238566232,1.7197463177445123,1.990061463859199,1.4829963081139468,1.8020764720166838,1.5483676309582746,1.7417758045806058,0.7070452413771653,-0.6346638226454033,0.20171159925221147,1.3401849249697118,-0.27025511670868324,0.07001665769796335,0
0.7642877844520273,1.6720071017154796,2.1957093027800427,2.136733616486603,1.906001383185998,1.8020764720166838,1.3394155415933227,1.1291034919545315,0.6592967315698349,-0.5895832447137486,0.16831130197342112,1.6462995874975594,-0.14758612756430434,0.3500832884897857,0
0.8117841414874218,1.8451672185037817,2.341994777940899,2.5168256540346965,2.5421613593685737,2.2976255359939115,1.0463928850229225,0.935363171329467,0.7070452413771653,0.36241248925435643,0.3025673988783172,1.761279241227544,0.3934032815918742,0.47269782562914,0
0.49358959272083713,1.6142870627860513,1.4635683392921626,1.990061463859199,2.0332333784225134,2.2976255359939115,1.0047657109697667,1.4838747284238347,0.9889450973547942,0.40749306718593076,0.3025673988783172,1.1490499161717809,0.31961021780972204,0.21004997309389006,0
0.44578280197932213,1.4797319070999249,1.1709973889704495,1.8439600199968427,1.6523635745002359,2.2080049605938066,1.59081102411053,1.7738561823464016,1.5068327806492796,-0.13612566669552345,0.4368234957832133,1.0721479399757694,-0.024437962681113378,0.2448875296070038,0
0.7323131127223199,1.6720071017154796,1.9759242961969268,2.6926039536816138,1.906001383185998,2.7035540245711145,2.176856337251293,2.1286274188157046,1.7896508772001458,0.36241248925435643,0.5710795926881094,1.6462995874975594,0.12266898914437892,0.38526238967460424,0
0.6366995312392899,1.5951719849587815,1.939531324327693,2.6047148038581294,1.5251315792637208,2.7035540245711145,1.8413902875286747,2.161336823596588,1.2249329246716507,0.4985381559498799,0.4368234957832133,1.4551645786996963,0.29469307938975303,0.08743543595453575,0
0.3023624297547771,1.2683416346570664,1.2444969203927088,1.7560708701734098,1.3557643128774315,2.2976255359939115,1.506740456905119,1.7738561823464016,1.1771844148643205,0.22628682255883295,0.23511189653100184,0.8421886325158002,0.12266898914437892,-0.15779363832417284,0
0.2070592819778676,1.1529015567982097,0.6586414320656205,1.668181720349977,1.4829963081139468,2.2528152482938992,1.8413902875286747,1.9996768807373193,2.025638704516919,0.588699311813109,0.0,0.5741516475218579,-0.14758612756430434,-0.14037486006760044,0
0.2545556390132621,1.1915065179003683,0.3296775098746738,1.7851770171928716,1.3128028599404644,1.9373859682090582,1.8413902875286747,1.9355161252056703,0.800705779845268,0.18120624462717821,-0.36936799343589793,0.4210943162579001,-0.31961021780972204,-0.26298939720695474,0
0.2545556390132621,1.210621595727638,0.5487489287740627,1.668181720349977,1.6094021215631937,1.5314574796319351,1.7165087653691335,1.1932642474862378,-0.7529572700380213,-0.6806283334776173,-0.4368234957832133,0.30611466252791547,-0.31961021780972204,-0.3330060549049181,0
0.1592524912363526,1.1723914400730815,0.8049269072264771,1.8142831642123332,2.1183301025093293,1.846886759716776,2.0095314219394966,1.1291034919545315,0.18915755808267984,-0.9069151560364502,-0.4027682907146883,0.1149796537299846,-0.4667171696351708,-0.3155872766483457,0
0.09561358148303002,1.0955563233163834,0.25617797845241447,1.7560708701734098,1.7795955697367511,1.8020764720166838,2.0511585959926895,1.3222147855646234,0.377396875592206,-1.2242470673590715,-0.6378801872456306,-0.1149796537299846,-0.5649481960984363,-0.3504248331614905,0
0.2228914009896752,1.037836284386938,-0.21978500658311587,1.112311383155018,1.0591650512546271,0.9005989194622531,1.5483676309582746,1.1611838697203847,-0.3764786350190524,-1.2693276452907263,-0.5370243876195249,0.0,-0.540510233417323,-0.3504248331614905,0
0.3185049824727052,1.0187212065596682,-0.18267844703015515,0.6437594870183919,0.974068327167886,1.1264076241469096,1.4651132828519262,1.6128252665022202,0.5656361931017322,-0.7707894893409268,-0.3359676961571076,0.4210943162579001,-0.4667171696351708,-0.29782695372009954,0
0.3023624297547771,1.1529015567982097,-0.10989250329155793,0.9074269364886905,1.4400348551769797,2.1175057521015246,2.176856337251293,2.516108060065834,1.6959903387319595,-0.31733191132270167,-0.06680059455758072,0.4979962924539116,-0.1964620529265311,-0.08777698062620949,0
0.5888927404977748,1.6142870627860513,0.8049269072264771,1.668181720349977,1.9489628361230402,2.2528152482938992,2.427435600669475,2.548188437831687,1.7896508772001458,0.588699311813109,0.9070472888451574,0.6891313012518424,0.3440481804908354,0.2274687513504314,0
0.8437588132171575,1.7683321017470666,1.3172828641313061,1.8730661670163045,1.9489628361230402,1.9373859682090582,2.0095314219394966,2.0644666632840556,1.4600025114151864,0.9970763118996794,1.2764152822810553,1.1490499161717809,0.540510233417323,0.262647852535281,0
0.5572285024741597,1.2683416346570664,0.4024634536132061,0.9953160863121233,1.3128028599404644,2.1175057521015246,2.092785770045882,2.419237899753302,1.3185934631397533,0.4525736451175855,0.7387359868717362,0.99524596377969,0.24581715402756987,0.17487087190904044,0
0.3979760112378071,1.13378647897094,0.25617797845241447,0.790431639645796,1.3978995840272057,2.3881247444862734,2.176856337251293,3.3866814488486217,1.4131722421810933,0.7248249785086325,0.7387359868717362,0.8421886325158002,0.29469307938975303,0.17487087190904044,0
0.6686742029689973,1.4992217903747966,1.0974978575481902,1.5220802764876726,2.075368649572287,1.8020764720166838,1.799763113475482,3.3866814488486217,1.0366936071621244,0.8609506452041559,1.0079030884712632,0.99524596377969,0.3934032815918742,0.10485421421107709,0
0.7323131127223199,1.4992217903747966,1.134604417101151,1.5220802764876726,2.1604653736590285,1.0359084156546274,1.59081102411053,2.709848380690899,0.047748509807246785,0.0,0.6378801872456306,0.99524596377969,0.1964620529265311,0.1226145371393543,0
0.6528420839571898,1.2683416346570664,0.9148194105180351,1.3171958298213453,1.7795955697367511,1.0815973364468972,1.5483676309582746,2.9356690790818165,0.6124664623358254,0.04508057793165475,0.5710795926881094,1.0340702624417963,0.2213791913464565,0.40268116793117664,0
0.9393723947001875,1.1915065179003683,1.2808898922620076,1.1414175301744796,1.7795955697367511,1.7572661843165915,1.6740653722168783,3.451471231395301,1.0835238763962176,0.7699055564402872,1.2764152822810553,1.799356918761517,0.4667171696351708,0.19263119483731764,0
0.7959520224756143,1.4415017514453512,1.1709973889704495,1.2584128270173742,1.9910981072728144,1.8020764720166838,1.59081102411053,3.161489777472734,0.6124664623358254,0.7248249785086325,1.20895977993374,1.5313199337675747,0.5649481960984363,0.262647852535281,0
0.7801199034638349,1.4992217903747966,1.2808898922620076,1.5220802764876726,1.863866112036224,1.7572661843165915,1.506740456905119,3.096699994926055,1.1771844148643205,0.6797444005770581,1.0079030884712632,1.187127593705754,0.5649481960984363,0.40268116793117664,0
0.8279266942053499,1.1723914400730815,0.9512123823873336,1.1414175301744796,1.1434355935541753,1.712455896616499,1.59081102411053,2.7419287584567518,0.4710574140603923,0.2713674004904073,0.5710795926881094,1.0340702624417963,0.29469307938975303,0.3675020667463581,0
0.7642877844520273,0.9610011676302399,0.6950344039349192,0.8486439336847194,0.931933056018112,1.577146400424125,1.5483676309582746,2.9029596743009902,0.047748509807246785,0.13524173379488386,0.537679295409319,1.1490499161717809,0.3934032815918742,0.29748540904839477,0
0.6366995312392899,0.9610011676302399,1.024711913809593,0.9953160863121233,1.4829963081139468,1.1264076241469096,1.5483676309582746,3.4193908536295052,0.7538755106112583,0.13524173379488386,0.8061914892190517,1.1490499161717809,0.6143032971994751,0.17487087190904044,0
0.6366995312392899,0.9801162454575096,1.207390360839748,1.2002005329784509,1.4829963081139468,1.0359084156546274,1.6740653722168783,2.9356690790818165,0.14140904827543305,-0.40837700008657035,0.36936799343583837,0.6510536237178693,0.1964620529265311,-0.03517910118481855,0
0.5888927404977748,1.0569513622142248,0.9148194105180351,1.3171958298213453,1.3128028599404644,1.306527408039376,1.506740456905119,2.2902873616749164,-0.6592967315699185,-0.7707894893409268,-0.23511189653100184,0.2299593074599692,-0.1964620529265311,-0.15779363832417284,0
0.44578280197932213,1.2301114790025098,0.7321409634879448,1.3171958298213453,1.4400348551769797,1.0815973364468972,1.4234861087987707,2.6771389759100725,0.6592967315698349,-0.36329642215491564,0.16831130197342112,0.26803698499394235,-0.024437962681113378,-0.2103915177655638,0
0.44578280197932213,1.1529015567982097,0.8784264386487365,1.3754081238602167,1.5672668504134948,0.9910981279545352,1.6740653722168783,3.0319102123793185,1.1771844148643205,0.31733191132270167,0.5710795926881094,0.4979962924539116,0.1964620529265311,-0.14037486006760044,0
0.6050352932156747,0.9801162454575096,1.0611048856788916,1.668181720349977,1.4829963081139468,1.4418369042317505,1.9254608547340857,2.774009136222605,0.23598782731677298,0.6797444005770581,0.4368234957832133,0.7660332774478539,0.29469307938975303,0.08743543595453575,0
0.7959520224756143,1.0760664400414945,1.0974978575481902,1.6390755733305673,1.4829963081139468,1.846886759716776,2.0511585959926895,2.9356690790818165,0.7070452413771653,0.8609506452041559,0.6719353923142152,1.187127593705754,0.49163430805513975,0.2800666307918223,0
0.8437588132171575,1.1723914400730815,1.0974978575481902,1.668181720349977,1.3557643128774315,1.4866471919318427,2.427435600669475,3.064619617160202,0.7070452413771653,0.9970763118996794,0.7387359868717362,1.378262602503617,0.6636583983005575,0.1226145371393543,0
0.6528420839571898,0.9223962065280814,0.9148194105180351,1.1705236771939413,1.6094021215631937,2.162316039801537,2.469878993821693,3.0319102123793185,0.7538755106112583,1.1782825565268575,0.5710795926881094,1.2252052712396593,0.3934032815918742,0.17487087190904044,0
0.5413963834623522,0.8841660508735247,0.8413198790957758,1.2293066799979124,1.6094021215631937,2.3881247444862734,2.511506167874886,3.161489777472734,0.7070452413771653,0.588699311813109,0.2685121938097326,0.804110954981827,0.12266898914437892,0.262647852535281,0
0.5888927404977748,1.1529015567982097,0.8413198790957758,1.5802925705265443,1.4829963081139468,1.6219566881242171,2.176856337251293,2.9356690790818165,0.800705779845268,0.22628682255883295,0.4368234957832133,0.6510536237178693,0.07379306378215217,0.15745209365246804,0
0.7959520224756143,1.383781712515923,1.024711913809593,1.6972878673694387,1.9489628361230402,1.3970266165316583,1.9670880287872783,2.6771389759100725,0.9889450973547942,0.9060312231358106,0.9404475861239477,0.8810129311778385,0.3684861431719052,0.19263119483731764,0
0.9073977229704518,1.4415017514453512,1.207390360839748,1.990061463859199,2.5421613593685737,1.8020764720166838,2.176856337251293,2.6129782203783662,0.6592967315698349,0.8609506452041559,0.9070472888451574,1.1102256175096747,0.6143032971994751,0.42009994618774904,0
0.9073977229704518,1.4797319070999249,1.207390360839748,2.1949459105255262,2.2876973688955435,1.7572661843165915,2.469878993821693,2.9356690790818165,0.800705779845268,0.13524173379488386,0.7053356895929459,1.187127593705754,0.49163430805513975,0.40268116793117664,0
0.8915656039586725,1.40289679034321,1.3172828641313061,1.8142831642123332,1.9489628361230402,1.7572661843165915,2.427435600669475,3.4193908536295052,1.5068327806492796,0.9060312231358106,0.9070472888451574,1.1490499161717809,0.4667171696351708,0.40268116793117664,0
0.9393723947001875,1.2301114790025098,1.3907823955535654,1.668181720349977,1.9910981072728144,2.02788517670134,2.2601106853576787,3.2577309107702366,1.2249329246716507,1.8580269571039156,1.1755594826549496,1.3401849249697118,0.8107653501260061,0.6127311410250667,0
0.9552045137119668,1.2874567124843532,1.2808898922620076,1.8439600199968427,1.906001383185998,2.02788517670134,2.0511585959926895,2.9677494568476694,0.9889450973547942,1.4045693790856906,1.243014985002265,1.6843772650315325,1.1059376052546148,0.7005081216512762,0
0.9552045137119668,1.13378647897094,1.2808898922620076,1.6093987175460058,1.5672668504134948,1.3513376957394685,2.176856337251293,3.096699994926055,1.8842296562414858,2.1302782904949624,1.8474948749691646,1.4163402800375902,1.4250686473254812,0.6830893433947037,0
0.6366995312392899,0.8841660508735247,0.9512123823873336,0.9953160863121233,1.1434355935541753,1.216028199547094,1.506740456905119,2.6771389759100725,0.518805923867639,0.9060312231358106,0.9738478834027381,0.804110954981827,0.6636583983005575,0.262647852535281,0
0.6366995312392899,0.7110059340852398,0.6950344039349192,0.9365330835081522,1.0591650512546271,1.2617171203392838,1.59081102411053,2.2582069839091203,-0.4233089042531455,-0.13612566669552345,0.1342560969048961,0.2299593074599692,0.12266898914437892,0.0348375565131448,0
0.9393723947001875,0.9415112843553682,0.9512123823873336,1.5220802764876726,1.4400348551769797,1.4866471919318427,2.218483511304486,2.8708792965351373,1.0835238763962176,0.2713674004904073,0.6719353923142152,0.5360739699878847,0.4667171696351708,0.4552790473725676,0
1.2417348244549646,1.5565670238566232,2.341994777940899,2.282835060348959,2.2876973688955435,2.4329350321862857,1.9670880287872783,3.096699994926055,0.7070452413771653,1.4956144678495593,0.9738478834027381,1.6462995874975594,0.8107653501260061,0.7353456781643899,0
1.130289123960127,1.40289679034321,1.8296388210360701,1.990061463859199,1.6094021215631937,2.2528152482938992,1.59081102411053,2.3223677394407694,0.518805923867639,1.0872374677629888,0.8729920837766324,1.187127593705754,0.736972286343854,0.5953123627684943,0
0.8754230512407444,0.691890856257953,1.2444969203927088,1.4341911266642398,1.4400348551769797,2.477745319886378,1.9254608547340857,3.0319102123793185,2.213878022026445,1.7219012904083921,1.3098155795598456,1.3021072474357387,0.540510233417323,0.5427144833271034,0
0.6366995312392899,2.7484483472045933,1.1709973889704495,2.5756086568387193,2.9230311632909265,2.2528152482938992,1.3810427156464782,2.8387989187692844,1.2249329246716507,1.3594888011540358,0.4368234957832133,0.30611466252791547,0.024437962681113378,-0.14037486006760044,0
0.2545556390132621,2.7293332693773062,0.6222484601963869,2.6926039536816138,2.7957991680544114,2.2976255359939115,1.088020059076115,2.451318277519155,0.7070452413771653,0.6797444005770581,-0.6044798899668997,-0.42109431625783217,-1.0077065787913493,-0.8934808611602676,0
-0.12727781950664516,2.690728308275165,0.0,2.5756086568387193,2.753663896904637,2.4329350321862857,1.2977883675401298,2.516108060065834,0.14140904827543305,-0.4534575780182251,-1.578327773369638,-1.1483032950436478,-2.1131650083071523,-1.453955667415617,0
-0.3821438922260278,2.671613230447878,-0.3660704817439724,2.4289365042112636,2.5421613593685737,2.2080049605938066,1.4234861087987707,2.484027682299981,-0.09366053846818627,-1.1791664894274971,-1.880895172247955,-1.3401849249696438,-2.8012613692887793,-1.769201399392289,0
-0.5730606214859673,2.517942996934465,-0.8049269072264771,2.4289365042112636,2.3719679111950915,2.2528152482938992,1.3394155415933227,2.0323862855182027,-0.5178876832944854,-1.1791664894274971,-1.9476957668054762,-0.99524596377969,-2.973285459534197,-1.874397158275071,0
-0.5413963834623804,2.5561731525890217,-0.8420334667795027,2.5168256540346965,2.5421613593685737,2.6578651037788448,1.59081102411053,1.9355161252056703,-0.5178876832944854,-0.9519957339680246,-1.712583870274534,-0.9571682862457169,-2.703030342825514,-1.5939889828115437,0
-0.2706981917311902,2.690728308275165,-0.21978500658311587,2.5168256540346965,2.9230311632909265,2.7483643122711268,1.88383368068093,2.2902873616749164,0.09457877904133992,-0.6346638226454033,-1.4106713791859513,-0.8421886325157323,-2.3589821623346783,-1.2787432508348717,0
-0.015832119011807574,2.7484483472045933,0.18267844703009026,2.4289365042112636,2.9651664344407003,2.3881247444862734,1.6324381981637226,2.3544481172066227,0.09457877904133992,-0.1820901775277374,-1.2764152822810553,-0.45917199379180534,-2.0149339818438867,-1.1212911571824038,0
-0.04780679074151501,2.690728308275165,0.3660704817439724,2.5168256540346965,2.753663896904637,2.2080049605938066,1.5483676309582746,2.3223677394407694,0.047748509807246785,0.2713674004904073,-1.2764152822810553,-0.3061146625278476,-1.8184719289173554,-1.0861120559975852,0
-0.031974671729707436,2.6521233471730064,0.9148194105180351,2.6047148038581294,2.753663896904637,2.3881247444862734,1.5483676309582746,2.419237899753302,0.18915755808267984,0.22628682255883295,-1.0072481806815285,-0.38301663872392694,-1.8673478542795823,-1.0509329548127355,0
0.12727781950661693,2.671613230447878,1.2808898922620076,2.633820950877591,2.838760620991378,2.2528152482938992,1.0047657109697667,2.2582069839091203,-0.23506958674361933,-0.31733191132270167,-0.8061914892191112,-0.26803698499394235,-1.916702955380621,-1.0686932777410127,0
0.12727781950661693,2.767563425031863,0.9512123823873336,2.7508162477204854,2.711528625754863,2.0726954644014324,0.8790679697111632,2.161336823596588,0.0,-0.40837700008657035,-1.1081039803076342,-0.19113500879786297,-1.842909891598469,-1.191307814880367,0
-0.015832119011807574,2.6521233471730064,0.8413198790957758,2.6926039536816138,2.457064635281833,2.02788517670134,1.2977883675401298,2.516108060065834,0.6592967315698349,-0.13612566669552345,-1.2764152822810553,-0.45917199379180534,-1.9660580564816599,-1.3139223520197214,0
-0.17508461024816016,2.3256678023188933,0.9148194105180351,2.458613359995825,2.245562097745845,1.5314574796319351,1.088020059076115,2.5802688155975404,-0.23506958674361933,-0.6346638226454033,-1.6117280706484283,-0.9190906087117438,-2.3345441996536085,-1.5765702045549714,0
-0.4299506829675428,2.1911126466327495,0.5487489287740627,2.3998303571918536,2.245562097745845,1.216028199547094,0.6276724871939559,2.2582069839091203,-1.3176752225665997,-1.7227852233089513,-2.3511189653099587,-1.4932422562336016,-2.776823406607666,-1.8217992788336799,0
-0.4935895927208654,2.248832685562195,-0.07349953142225932,2.5465025098192577,2.4149293641320586,1.8925756805089657,0.7117430543993667,1.9034357474398171,-0.8475360490794447,-1.9499559787683436,-2.720486958745797,-1.8374345962954224,-3.0715164859974626,-1.7866201776488304,0
-0.4299506829675428,2.2102277244600366,-0.14628547516085655,2.282835060348959,2.245562097745845,2.3881247444862734,0.8790679697111632,2.0323862855182027,0.09457877904133992,-1.3152921561230206,-2.3511189653099587,-1.761279241227544,-3.0470785233163493,-1.6465868622529347,0
-0.5094217117326447,2.0179525298444645,0.03639297186929861,1.9609553168397373,2.1183301025093293,2.2080049605938066,1.0047657109697667,2.3544481172066227,0.6124664623358254,-1.088121400663548,-2.116007068778957,-1.378262602503617,-2.8012613692887793,-1.6640056405095072,0
-0.4935895927208654,1.9602324909150364,0.07349953142225932,2.224052057544988,2.1604653736590285,1.9373859682090582,1.088020059076115,2.161336823596588,0.14140904827543305,-1.1340859114958424,-2.182807663336478,-0.99524596377969,-2.531006252580096,-1.5765702045549714,0
-0.23872352000148275,2.1142775298760514,0.18267844703009026,2.5465025098192577,1.9910981072728144,1.6667669758243093,0.7117430543993667,1.7417758045806058,-0.5178876832944854,-0.4994220888504391,-1.712583870274534,-0.6510536237178014,-2.1869580720893045,-1.2787432508348717,0
-0.19091672925996775,2.229342802287323,0.3296775098746738,2.4877195070152864,1.69449884565001,1.7572661843165915,0.5444181390875703,1.7096954268147526,-0.4701391734871551,-0.31733191132270167,-1.20895977993374,-0.38301663872392694,-1.8673478542795823,-1.1561287136955176,0
-0.23872352000148275,2.133392607703321,0.4388564254825047,2.4289365042112636,1.6094021215631937,1.712455896616499,0.7533702284525595,1.7738561823464016,-0.3764786350190524,-1.0430408227319736,-1.3098155795598456,-0.26803698499394235,-1.842909891598469,-1.3661786867894075,0
-0.06363890975332258,2.056557490946623,0.9148194105180351,2.6047148038581294,1.69449884565001,1.0359084156546274,0.4603475718821594,1.3222147855646234,-0.28189985597771244,-0.997960244800319,-1.20895977993374,-0.3441923400618207,-1.9411409180617345,-1.3661786867894075,0
-0.031974671729707436,2.133392607703321,1.1709973889704495,2.633820950877591,1.4829963081139468,0.7661680563620562,0.29302265657036297,1.0001529538762033,-0.6592967315699185,-0.6806283334776173,-1.1415042775864246,-0.6891313012517746,-1.9660580564816599,-1.2435641496500534,0
-0.2706981917311902,2.0370676076717515,0.6586414320656205,2.5168256540346965,1.3128028599404644,1.1712179118470019,0.586045313140763,0.8705733887827878,-1.6950720981588059,-1.6326240674457224,-1.880895172247955,-0.8421886325157323,-2.162520109408191,-1.3139223520197214,0
-0.3023624297547771,2.075672568773893,0.47596298503553036,2.663497806662152,1.69449884565001,1.2617171203392838,0.501974745935315,0.8384930110169346,-1.1294359050570737,-1.9499559787683436,-1.981750971874061,-0.4979962924539116,-2.162520109408191,-1.191307814880367,0
0.04780679074151501,2.440733074730165,0.9512123823873336,2.663497806662152,2.1604653736590285,1.216028199547094,0.501974745935315,0.8064126332511388,-0.6115482217625882,-1.088121400663548,-0.9738478834027381,0.0,-1.8184719289173554,-0.7356872228360948,0
0.38214389222599954,2.6521233471730064,1.2444969203927088,2.721710100701024,2.0332333784225134,1.306527408039376,0.7533702284525595,0.903282793563671,-1.4122540016079397,-0.9519957339680246,-0.5710795926881094,0.38301663872392694,-1.5726547748897857,-0.5256372497422357,0
0.3979760112378071,2.59477811369118,1.1709973889704495,3.102372847014217,1.6094021215631937,0.9462878402545228,0.41872039782896664,1.2901344077987702,-1.3654237323738465,-1.2242470673590715,-0.8729920837766324,0.45917199379187323,-1.5726547748897857,-0.7182684445795223,0
0.23872352000145453,2.440733074730165,1.2808898922620076,3.0435898442102456,1.7366341167997088,0.7204791355697865,-0.041627174053192745,1.3222147855646234,-0.7997875392721143,-0.8167540001731407,-0.7721362841505266,0.15305733126395774,-1.4988617111076334,-0.8057038805340581,0
0.2706981917311902,2.3061779190440213,1.207390360839748,2.5756086568387193,2.1604653736590285,1.4866471919318427,0.501974745935315,1.225973652267064,-0.7529572700380213,-0.1820901775277374,-0.503624090340794,-0.1149796537299846,-1.2779616955000326,-0.6830893433947037,0
0.3660013395080997,2.3638979579734496,1.0611048856788916,2.633820950877591,2.3298326400453178,2.2528152482938992,1.088020059076115,1.806565587127285,0.42422714482629914,0.2713674004904073,-0.4027682907146883,0.26803698499394235,-0.9827894403714239,-0.5782351291836267,0
0.19091672925993952,2.4602229580050365,1.1709973889704495,2.8683822533284795,2.1604653736590285,2.0726954644014324,0.7533702284525595,2.2582069839091203,1.1303541456302273,0.22628682255883295,-0.4702237930620037,0.6891313012518424,-0.9583514776903105,-0.6130726856967404,0
-0.031974671729707436,2.248832685562195,1.024711913809593,2.633820950877591,1.6523635745002359,1.8020764720166838,0.25139548251720734,1.7096954268147526,-0.09366053846818627,-0.1820901775277374,-0.5710795926881094,0.4210943162579001,-1.302399658181146,-0.8408829817188767,0
-0.06363890975332258,2.0179525298444645,0.9883189419402943,2.5168256540346965,1.3128028599404644,1.712455896616499,0.25139548251720734,1.225973652267064,-0.6115482217625882,-0.6346638226454033,-1.0072481806815285,-0.19113500879786297,-1.6953237640341645,-1.1035308342541266,0
-0.07947102876513015,2.075672568773893,0.9148194105180351,2.6926039536816138,1.4400348551769797,1.216028199547094,0.20895208936495205,1.0643137094078523,-0.8475360490794447,-1.4505338899179046,-1.5449274760908476,-0.4979962924539116,-1.9904960191627732,-1.191307814880367,0
-0.2228914009896752,1.9602324909150364,0.25617797845241447,2.6926039536816138,1.4829963081139468,0.7204791355697865,-0.12569774125860367,0.48372177454768867,-2.071550733177858,-2.040117134631653,-1.746639075343059,-0.9190906087117438,-2.088727045626039,-1.4187765662307985,0
-0.4299506829675428,1.7106120628176382,-0.25617797845241447,2.6047148038581294,1.3978995840272057,0.7661680563620562,-0.2513954825172445,0.289981453922624,-1.6950720981588059,-1.9499559787683436,-1.6791835729957436,-1.2632829487736323,-2.162520109408191,-1.6817659634377533,0
-0.4299506829675428,1.8065622574016231,-0.10989250329155793,2.6047148038581294,1.8217308408865251,0.9462878402545228,0.1673249153117593,0.8384930110169346,-0.1882393175095262,-1.3603727340546754,-1.5115271788120572,-0.766033277447786,-2.064289082944925,-1.5239723251135804,0
-0.2706981917311902,1.9797223741899082,0.03639297186929861,2.721710100701024,2.2026006448088022,1.0815973364468972,0.41872039782896664,1.0322333316419994,-0.6115482217625882,-0.9069151560364502,-1.4106713791859513,-0.4979962924539116,-1.842909891598469,-1.3139223520197214,0
-0.2706981917311902,1.8256773352288929,-0.07349953142225932,2.3998303571918536,1.863866112036224,1.2617171203392838,0.1673249153117593,0.580591934860221,-1.6950720981588059,-1.2693276452907263,-1.5115271788120572,-1.2252052712396593,-1.8922649926995077,-1.6114077610681161,0
-0.4616149209911297,1.633776946060923,-0.5123559569048289,1.8142831642123332,1.2706675887906904,1.4866471919318427,0.20895208936495205,0.7095424729385492,-0.8943663183135377,-1.6777046453772966,-1.746639075343059,-1.4932422562336016,-2.2851890985525265,-1.8043805005771076,0
-0.4616149209911297,1.633776946060923,-0.8420334667795027,1.5802925705265443,1.0591650512546271,1.3513376957394685,0.377093223775811,1.258054030032917,0.047748509807246785,-0.9069151560364502,-1.6791835729957436,-0.6891313012517746,-2.310106236972495,-1.3487599085328352,0
-0.2228914009896752,1.6911221795427664,-0.3660704817439724,1.7269647231540002,1.6523635745002359,1.0815973364468972,0.12569774125860367,1.2901344077987702,-0.046830269234093135,-0.36329642215491564,-1.343215876838636,-0.07690197619601147,-1.8184719289173554,-0.9986766200430495,0
-0.04780679074151501,1.7488422184721948,0.10989250329155793,1.6972878673694387,2.1604653736590285,1.4418369042317505,0.25139548251720734,0.96744354909532,-0.6115482217625882,-0.8618345781047955,-1.1755594826549496,-0.15305733126388985,-1.6708858013530512,-1.1035308342541266,0
0.04780679074151501,1.729727140644908,-0.03639297186929861,1.5220802764876726,1.8217308408865251,1.9373859682090582,0.7533702284525595,0.96744354909532,-0.8943663183135377,-0.9519957339680246,-1.1755594826549496,-0.3061146625278476,-1.8673478542795823,-1.0509329548127355,0
0.1592524912363526,1.6720071017154796,0.0,1.6390755733305673,1.3978995840272057,1.712455896616499,0.9631385369165741,1.258054030032917,-0.5178876832944854,-0.5445026667820938,-1.0072481806815285,-0.2299593074599692,-1.6953237640341645,-0.8760620829036951,0
0.12727781950661693,1.6911221795427664,-0.25617797845241447,1.4632972736836496,1.6094021215631937,1.4866471919318427,0.7533702284525595,1.2901344077987702,-0.4233089042531455,-0.8618345781047955,-0.8395917864979016,-0.38301663872392694,-1.5726547748897857,-0.9809162971148033,0
0.07947102876510193,1.7106120628176382,-0.7685339353572435,1.112311383155018,1.863866112036224,2.0726954644014324,0.8790679697111632,1.1932642474862378,-0.6115482217625882,-1.4505338899179046,-1.041303385750113,-0.7272089787857476,-1.8184719289173554,-1.1387099354389763,0
0.2706981917311902,1.8065622574016231,-0.3296775098746738,1.3754081238602167,2.1604653736590285,2.3881247444862734,1.256161193486974,1.4838747284238347,0.2828180965508661,-0.5895832447137486,-0.7721362841505266,-0.6510536237178014,-1.6708858013530512,-0.8408829817188767,0
0.5888927404977748,2.09478764660118,0.4388564254825047,1.8439600199968427,2.668567172817896,1.8020764720166838,1.088020059076115,1.5159551061896879,0.942114828120701,0.9511118010674654,0.16831130197342112,-0.19113500879786297,-0.9827894403714239,-0.5782351291836267,0
0.5413963834623522,2.1911126466327495,0.25617797845241447,1.7851770171928716,2.245562097745845,1.3513376957394685,0.6701158803462112,1.1611838697203847,0.6592967315698349,1.1782825565268575,0.40342319850442293,0.1149796537299846,-0.7618894247637794,-0.7356872228360948,0
0.28653031074296953,1.7874471795743363,-0.14628547516085655,1.4341911266642398,1.4829963081139468,1.4418369042317505,1.0463928850229225,1.4838747284238347,0.7070452413771653,0.588699311813109,0.0,0.03807767753397314,-0.9827894403714239,-0.6830893433947037,0
0.23872352000145453,1.6142870627860513,0.0,1.0826345273705085,1.5672668504134948,1.3970266165316583,1.2977883675401298,1.580744888736367,-0.09366053846818627,0.18120624462717821,-0.1342560969048961,-0.19113500879786297,-0.9089963765892718,-0.4730393703008137,0
0.06363890975332258,1.5760569071314947,-0.25617797845241447,0.790431639645796,1.4829963081139468,1.1712179118470019,0.7117430543993667,0.5158021523134846,-1.788732636626992,-0.7257089114092721,-1.041303385750113,-0.6122293250557631,-1.646447838671938,-1.0686932777410127,0
-0.4457828019793504,1.0569513622142248,-1.0611048856788916,0.7316486368418248,1.1434355935541753,1.216028199547094,0.6701158803462112,0.12895053807838544,-1.6950720981588059,-1.7227852233089513,-2.116007068778957,-1.3021072474356707,-2.948847496853084,-1.769201399392289,0
-0.5413963834623804,0.691890856257953,-1.1709973889704495,0.6437594870183919,1.2285323176409164,1.3513376957394685,0.9631385369165741,0.6774620951727532,-0.4701391734871551,-1.1791664894274971,-1.4774719737435322,-1.6082219099635862,-2.3589821623346783,-1.1035308342541266,0
0.06363890975332258,0.9223962065280814,-0.5487489287741275,0.5855471929795205,1.2706675887906904,1.1712179118470019,0.33464983062355574,0.7416228507044023,-0.23506958674361933,0.0901611558633095,-0.06680059455758072,-0.8802663100497055,-0.3934032815918742,0.0348375565131448,0
0.44578280197932213,0.8264460119440964,-0.25617797845241447,0.6728656340378536,0.931933056018112,1.1264076241469096,0.0,0.8384930110169346,-0.09366053846818627,0.6337798897447637,0.537679295409319,0.03807767753397314,0.6880963609816273,0.3326645102332133,0
0.5572285024741597,0.2691103113722699,0.21978500658311587,0.6437594870183919,1.0591650512546271,1.6219566881242171,0.8790679697111632,1.4838747284238347,0.7070452413771653,1.1332019785952028,1.1755594826549496,0.804110954981827,1.179730669036767,0.6830893433947037,0
0.9710366327237744,0.21139027244284156,1.134604417101151,0.6437594870183919,1.4829963081139468,2.162316039801537,1.6740653722168783,2.0644666632840556,1.9310599254755787,2.266403957190486,2.317718668031109,1.799356918761517,2.039371944525,1.3135808073480166,0
1.130289123960127,0.2691103113722699,1.3536758360006047,0.6728656340378536,1.1863970464911424,2.2080049605938066,1.59081102411053,2.0323862855182027,1.9310599254755787,2.7649421131402856,2.351118965309899,2.029316226221486,2.2607511358714567,1.2258038267218072,0
0.8595909322289368,0.019115077827269795,0.6586414320656205,0.5855471929795205,1.01620359831766,1.712455896616499,1.256161193486974,1.6449056442680734,0.6592967315698349,1.7219012904083921,1.4781268815332669,1.2252052712396593,1.7691168278163167,0.8405414370471718,0
0.7959520224756143,0.0,0.4024634536132061,0.6146533399989302,1.5251315792637208,1.4418369042317505,1.0047657109697667,1.258054030032917,0.32964836578495926,1.1782825565268575,1.5115271788120572,1.0721479399757694,1.646447838671938,0.9631559741865261,0
0.8595909322289368,0.03823015565455663,0.5487489287740627,0.7025424898223631,1.5251315792637208,1.712455896616499,1.172090626281526,1.0963940871737055,0.2828180965508661,1.5857756237128688,1.8474948749691646,1.4551645786996963,1.6953237640341645,1.0157538536279171,0
0.7164809937105123,-0.019489883274871674,0.4024634536132061,0.7025424898223631,1.0591650512546271,1.712455896616499,1.256161193486974,0.8384930110169346,-0.5178876832944854,1.4045693790856906,1.4440716764647417,1.187127593705754,1.4988617111076334,0.8231226587906305,0
0.6845063219808049,-0.03860496110215851,0.5487489287740627,0.6146533399989302,0.8897977848683379,0.9005989194622531,0.9631385369165741,0.6126723126260168,-0.8943663183135377,0.4525736451175855,1.0413033857500535,0.9571682862457848,1.1548135306168417,0.8057038805340581,0
0.7481452317340992,0.0,0.9883189419402943,0.5558703371949592,1.0591650512546271,0.8109783440621485,1.172090626281526,1.1932642474862378,0.18915755808267984,0.36241248925435643,1.343215876838636,1.3401849249697118,1.228606594398994,0.8757205382320215,0
0.6208674122274823,0.09595019458398495,0.9148194105180351,0.6728656340378536,0.974068327167886,1.216028199547094,1.3810427156464782,1.6128252665022202,0.7070452413771653,0.9970763118996794,1.4106713791859513,1.4551645786996963,1.5482168122087159,0.7005081216512762,0
0.6050352932156747,0.13455515568612642,0.6950344039349192,0.7316486368418248,0.6774690655450817,0.8109783440621485,0.9631385369165741,0.935363171329467,-0.23506958674361933,0.7248249785086325,1.20895977993374,1.2252052712396593,1.4744237484265637,0.6479102422098852,0
0.8117841414874218,-0.09632500003158682,0.9883189419402943,0.3509858905286317,0.3808698039222773,0.6756688478696943,1.0463928850229225,0.7095424729385492,-0.23506958674361933,0.4985381559498799,1.2764152822810553,1.570144232429681,1.4988617111076334,0.9805747524430986,0
0.9232298419822594,-0.2691103113722869,1.3172828641313061,0.29277359648976026,0.29659926162280437,0.9462878402545228,1.4651132828519262,1.4517943506579818,0.6124664623358254,0.9511118010674654,1.612382978438163,2.0673939037554594,1.7446788651352034,1.1557871690238437,0
0.8279266942053499,-0.09632500003158682,1.024711913809593,0.6437594870183919,0.7196043366948558,0.7661680563620562,1.0463928850229225,1.580744888736367,0.09457877904133992,0.8609506452041559,1.7132387780642686,1.799356918761517,1.6708858013530512,0.8757205382320215,0
0.6366995312392899,0.05734523348182643,0.25617797845241447,0.7316486368418248,1.01620359831766,0.6756688478696943,0.4603475718821594,1.0322333316419994,-0.8475360490794447,0.4985381559498799,1.3098155795598456,1.3021072474357387,1.4499857857454503,0.6304914639533128,0
0.6050352932156747,0.0768351167566981,0.21978500658311587,0.5855471929795205,1.01620359831766,0.9462878402545228,0.7949974025057152,1.0963940871737055,-0.1882393175095262,0.9511118010674654,1.2764152822810553,1.3401849249697118,1.597092737570899,0.8057038805340581,0
0.7481452317340992,0.11506527241125473,0.9512123823873336,0.6728656340378536,1.1013003224044011,0.9910981279545352,1.2137178003347189,1.3870045681113026,0.42422714482629914,1.4505338899179046,1.5449274760908476,1.4551645786996963,1.842909891598469,0.9105580947451352,0
0.6366995312392899,0.09595019458398495,0.7321409634879448,0.9074269364886905,1.1013003224044011,0.9005989194622531,1.0463928850229225,1.225973652267064,0.18915755808267984,1.042156889831334,1.4440716764647417,1.378262602503617,1.7446788651352034,0.5078769268139586,0
0.2706981917311902,-0.03860496110215851,-0.18267844703015515,0.6146533399989302,0.7196043366948558,0.9462878402545228,0.9206951437643188,1.225973652267064,0.23598782731677298,0.588699311813109,1.0413033857500535,1.3401849249697118,1.3268376208622157,0.2274687513504314,0
0.28653031074296953,-0.13455515568614346,-0.07349953142225932,0.05878300280397117,0.7625657896318229,1.0359084156546274,1.4234861087987707,1.7096954268147526,0.8952845588866915,0.6337798897447637,1.1421591853761592,1.3401849249697118,1.228606594398994,0.6830893433947037,0
0.5413963834623522,0.019115077827269795,0.2925709503216482,0.1757782996468657,0.974068327167886,1.0815973364468972,1.6324381981637226,2.225497579128237,1.9778901947096719,1.540695045781214,1.4781268815332669,1.2632829487736323,1.5482168122087159,0.9279768730017076,0
0.5094217117326447,0.0768351167566981,0.14628547516085655,0.49765804315608764,0.8047010607815969,0.8109783440621485,1.172090626281526,1.9675965029714662,1.7428206079660526,2.0392332017310135,1.4106713791859513,1.0721479399757694,1.5726547748897857,0.5427144833271034,0
0.44578280197932213,-0.019489883274871674,0.18267844703009026,0.3806627463131931,0.8047010607815969,0.6308585601696819,1.256161193486974,1.3870045681113026,0.7070452413771653,1.4956144678495593,1.1421591853761592,1.1102256175096747,1.3517547592821848,0.5953123627684943,0
0.5413963834623522,-0.07720992220431702,0.18267844703009026,0.029106147019461688,0.6774690655450817,0.8109783440621485,1.7581359394223264,1.548035483955541,0.8484542896525983,1.268443712390167,1.074703683028844,1.187127593705754,1.400630684644368,0.8579602153037442,0
0.3660013395080997,-0.30771527247442837,-0.25617797845241447,-0.2636674494702986,-0.042961452937042205,0.6308585601696819,1.59081102411053,1.870726342658934,1.0835238763962176,1.3594888011540358,0.9404475861239477,0.8421886325158002,1.2530445570800637,0.5604748062553495,0
0.28653031074296953,-0.38455038923114354,-0.43885642548256965,-0.40976889333265476,0.0,0.4955490639773076,1.256161193486974,1.4190849458771555,0.09457877904133992,0.7699055564402872,0.9070472888451574,0.5741516475218579,1.0810204668346894,0.5252957050705309,0
0.6050352932156747,-0.05772003892944535,0.0,-0.029106147019461688,0.7196043366948558,0.6756688478696943,0.9631385369165741,0.8384930110169346,-0.5178876832944854,0.4525736451175855,1.3098155795598456,1.1490499161717809,1.2779616955000326,0.9105580947451352,0
0.7323131127223199,0.019115077827269795,0.25617797845241447,0.23399059368573719,0.5931985232456087,0.7204791355697865,0.41872039782896664,0.935363171329467,0.0,0.8158700672725816,1.4440716764647417,1.723201563693571,1.3761927219632981,0.8757205382320215,0
0.5413963834623522,-0.21176507789044344,0.03639297186929861,-0.029106147019461688,0.0,0.40504985548494554,0.25139548251720734,1.258054030032917,-0.09366053846818627,0.7699055564402872,1.1081039803076342,1.4932422562336016,1.228606594398994,0.6830893433947037,0
0.5730606214859673,-0.13455515568614346,0.10989250329155793,-0.08788914982343285,0.08427054229947296,0.31542928008484095,0.377093223775811,1.225973652267064,-0.6115482217625882,0.40749306718593076,1.1421591853761592,1.2632829487736323,1.179730669036767,0.8757205382320215,0
0.7323131127223199,0.05734523348182643,0.4388564254825047,0.32187974350917004,0.4659665280090936,0.6756688478696943,0.41872039782896664,1.0322333316419994,-0.5647179525285786,0.2713674004904073,1.1081039803076342,1.3021072474357387,1.1548135306168417,0.9983350753713758,0
0.7164809937105123,0.0768351167566981,0.18267844703009026,0.49765804315608764,0.2536378086857622,0.6308585601696819,0.501974745935315,0.935363171329467,0.18915755808267984,0.4525736451175855,0.8061914892190517,1.1490499161717809,1.2041686317178804,0.9279768730017076,0
0.7164809937105123,0.09595019458398495,0.03639297186929861,0.29277359648976026,0.21150253753598813,0.5403593516773199,0.7533702284525595,1.0322333316419994,0.518805923867639,0.7248249785086325,0.8729920837766324,0.99524596377969,1.3761927219632981,0.9983350753713758,0
0.9073977229704518,0.17278531134068303,0.8413198790957758,0.5855471929795205,0.6774690655450817,0.8557886317621609,0.8790679697111632,1.225973652267064,-0.046830269234093135,0.9511118010674654,1.3098155795598456,1.378262602503617,1.597092737570899,1.0331726318844894,0
0.9552045137119668,0.1919003891679699,1.207390360839748,0.9656392305276139,0.6774690655450817,0.9462878402545228,0.7533702284525595,1.3222147855646234,-0.09366053846818627,1.1332019785952028,1.5115271788120572,1.6843772650315325,1.597092737570899,0.9457371959299847,0
0.6686742029689973,-0.03860496110215851,0.3296775098746738,0.4388750403520646,-0.12723199523651516,0.5860482724695897,0.7533702284525595,1.3549241903454494,0.09457877904133992,0.8158700672725816,1.2764152822810553,1.4551645786996963,1.2530445570800637,0.9105580947451352,0
0.3501692204962921,-0.36543531140385666,-0.14628547516085655,-0.32187974350922194,-0.33956071455977144,0.5403593516773199,0.9206951437643188,1.0963940871737055,-0.4233089042531455,0.2713674004904073,0.8729920837766324,1.4163402800375902,1.0077065787913493,0.7705247793492396,0
0.38214389222599954,-0.34632023357658687,0.21978500658311587,0.0,0.5502370703085665,0.9005989194622531,0.8790679697111632,0.903282793563671,-0.28189985597771244,0.5436187338815346,0.5710795926881094,1.187127593705754,1.1059376052546148,0.5778935845119219,0
0.4774470400029373,0.0,0.21978500658311587,0.7607547838612865,0.7625657896318229,0.8109783440621485,0.7533702284525595,1.0001529538762033,0.32964836578495926,0.8158700672725816,0.5036240903407344,0.45917199379187323,0.9827894403714239,0.5778935845119219,0
0.38214389222599954,0.05734523348182643,-0.3296775098746738,0.6728656340378536,0.04213527114977405,0.5860482724695897,0.7533702284525595,1.0322333316419994,-0.3764786350190524,-0.1820901775277374,0.40342319850442293,0.19113500879793088,0.736972286343854,0.5604748062553495,0
0.3501692204962921,-0.17316011678830195,-0.3296775098746738,0.20488444666632738,-0.12723199523651516,0.5860482724695897,0.7533702284525595,0.903282793563671,-0.6592967315699185,-0.5445026667820938,0.4368234957832133,0.5741516475218579,0.860120451227045,0.6304914639533128,0
0.3501692204962921,-0.23088015571773027,0.07349953142225932,0.1461014438623043,0.4230050750720514,0.7661680563620562,0.6276724871939559,1.1611838697203847,0.518805923867639,0.588699311813109,0.9404475861239477,0.8810129311778385,1.179730669036767,0.6830893433947037,0
0.17508461024813193,-0.19227519461557177,-0.3660704817439724,0.1461014438623043,0.3808698039222773,0.9910981279545352,0.25139548251720734,1.3549241903454494,0.2828180965508661,1.1332019785952028,1.074703683028844,0.7660332774478539,1.1303755679357284,0.3500832884897857,0
0.015832119011807574,-0.30771527247442837,-0.8784264386488013,0.11699529684289454,-0.042961452937042205,0.8109783440621485,-0.12569774125860367,0.935363171329467,-0.8943663183135377,0.4985381559498799,0.537679295409319,0.5741516475218579,0.860120451227045,0.15745209365246804,0
0.19091672925993952,-0.40366546705841333,-0.25617797845241447,0.40976889333265476,0.1693672663862892,0.7204791355697865,0.33464983062355574,0.935363171329467,-0.046830269234093135,0.5436187338815346,0.5710795926881094,1.0340702624417963,1.1303755679357284,0.7179268999078486,0
0.49358959272083713,-0.23088015571773027,0.3660704817439724,0.7025424898223631,0.3808698039222773,0.9462878402545228,0.7117430543993667,1.2901344077987702,1.0835238763962176,1.5857756237128688,1.5115271788120572,1.723201563693571,1.72024090245409,1.0857705113258804,0
0.5730606214859673,-0.19227519461557177,-0.07349953142225932,0.4388750403520646,0.08427054229947296,1.0359084156546274,0.4603475718821594,1.258054030032917,0.8484542896525983,1.9941526237994391,1.8134396699005801,1.799356918761517,1.622009875990868,0.8579602153037442,0
0.6208674122274823,-0.24999523354500006,0.14628547516085655,0.29277359648976026,0.08427054229947296,0.8557886317621609,0.4603475718821594,1.1291034919545315,0.4710574140603923,1.5857756237128688,1.377271081907161,1.723201563693571,1.179730669036767,0.8757205382320215,0
0.7959520224756143,-0.24999523354500006,1.0974978575481902,0.6728656340378536,0.04213527114977405,0.8557886317621609,0.7949974025057152,1.225973652267064,0.09457877904133992,0.9970763118996794,1.074703683028844,1.9524142500254749,1.228606594398994,0.9631559741865261,0
0.7323131127223199,-0.40366546705841333,0.6586414320656205,0.6728656340378536,-0.3816959857095455,0.7204791355697865,0.7949974025057152,1.1932642474862378,-0.5647179525285786,0.4985381559498799,0.9070472888451574,1.799356918761517,1.228606594398994,0.8579602153037442,0
0.5730606214859673,-0.38455038923114354,-0.14628547516085655,0.3806627463131931,-0.33956071455977144,0.3602395677849332,0.6701158803462112,1.0963940871737055,0.14140904827543305,0.6337798897447637,0.9738478834027381,1.5313199337675747,1.1303755679357284,0.8931393164885938,0
0.7003384409925842,-0.03860496110215851,0.4024634536132061,0.6437594870183919,0.3387345327725784,0.5403593516773199,0.7117430543993667,1.4517943506579818,1.6482418289247127,1.767865801240606,1.343215876838636,1.761279241227544,1.4499857857454503,1.0331726318844894,0
0.9232298419822594,0.23050535027011135,1.207390360839748,1.1414175301744796,0.6774690655450817,0.8557886317621609,0.6276724871939559,1.6128252665022202,1.4131722421810933,2.5377713576808936,1.6457832757169533,1.9524142500254749,1.7940339662362421,0.9805747524430986,0
0.8915656039586725,0.17278531134068303,1.134604417101151,0.9365330835081522,0.6774690655450817,1.1264076241469096,0.6276724871939559,1.258054030032917,0.23598782731677298,2.0392332017310135,1.243014985002265,1.6462995874975594,1.5232996737887468,0.8931393164885938,0
0.8117841414874218,0.05734523348182643,1.0974978575481902,0.7607547838612865,0.7196043366948558,1.5314574796319351,0.6701158803462112,1.0643137094078523,0.23598782731677298,1.540695045781214,0.839591786497842,1.6843772650315325,1.179730669036767,0.9279768730017076,0
0.7164809937105123,-0.09632500003158682,1.3172828641313061,0.9074269364886905,0.5081017991587925,1.5314574796319351,0.6701158803462112,1.3549241903454494,1.0366936071621244,1.3594888011540358,0.8729920837766324,2.1062182024174976,1.0321445414724626,0.7353456781643899,0
0.44578280197932213,-0.3268303503017152,0.7685339353571785,0.7316486368418248,0.12723199523651516,0.9910981279545352,0.8374407956579704,1.258054030032917,0.7538755106112583,0.9060312231358106,0.5710795926881094,1.723201563693571,0.7125343236627406,0.38526238967460424,0
0.4138081302496147,-0.30771527247442837,0.14628547516085655,0.6728656340378536,0.1693672663862892,0.6756688478696943,0.7117430543993667,0.8384930110169346,0.09457877904133992,0.8158700672725816,0.23511189653100184,0.8810129311778385,0.6880963609816273,0.47269782562914,0
0.6050352932156747,-0.07720992220431702,0.4388564254825047,0.9074269364886905,0.7196043366948558,1.216028199547094,0.25139548251720734,1.1932642474862378,1.2249329246716507,1.540695045781214,0.9738478834027381,1.0721479399757694,1.3268376208622157,0.8405414370471718,0
0.4616149209911297,-0.07720992220431702,0.5851419006433612,0.9074269364886905,0.7196043366948558,1.4866471919318427,0.29302265657036297,1.7417758045806058,1.9310599254755787,1.9941526237994391,1.5115271788120572,1.5313199337675747,1.5726547748897857,0.7531060010926671,0
0.3660013395080997,-0.15404503896101512,0.07349953142225932,0.8195377866652577,0.4230050750720514,1.1264076241469096,0.5444181390875703,1.6128252665022202,1.1771844148643205,2.0392332017310135,1.20895977993374,1.1102256175096747,1.4499857857454503,0.6127311410250667,0
0.6366995312392899,0.03823015565455663,0.14628547516085655,0.9365330835081522,0.8897977848683379,1.3970266165316583,0.8374407956579704,1.4838747284238347,1.1771844148643205,2.175358868426537,1.343215876838636,1.0721479399757694,1.622009875990868,0.8231226587906305,0
0.6208674122274823,0.03823015565455663,0.4024634536132061,0.9365330835081522,1.2706675887906904,1.9821962559091504,1.172090626281526,1.6128252665022202,1.0835238763962176,1.540695045781214,1.343215876838636,1.2252052712396593,1.4499857857454503,0.7353456781643899,0
0.3979760112378071,-0.07720992220431702,0.07349953142225932,0.9953160863121233,0.8897977848683379,1.3970266165316583,0.6701158803462112,1.0001529538762033,-0.23506958674361933,0.4985381559498799,0.6719353923142152,0.6891313012518424,0.9827894403714239,0.42009994618774904,0
0.6050352932156747,0.0768351167566981,0.3660704817439724,1.3754081238602167,0.6774690655450817,0.6308585601696819,-0.1673249153117964,0.22582069839091776,-0.7061270008040116,0.7699055564402872,0.6719353923142152,0.6129759461838962,1.1059376052546148,0.8057038805340581,0
0.9710366327237744,0.2691103113722699,1.134604417101151,1.668181720349977,1.1434355935541753,0.6756688478696943,-0.1673249153117964,0.3547712364693032,0.5656361931017322,1.4045693790856906,1.2764152822810553,1.6843772650315325,1.6708858013530512,1.4184350215590937,0
1.0666502142068044,0.21139027244284156,1.1709973889704495,1.7269647231540002,1.1434355935541753,1.0359084156546274,0.12569774125860367,1.0322333316419994,1.3663419729470838,1.3594888011540358,1.5449274760908476,2.220451235019417,1.8184719289173554,1.2609829279066256,0
1.0188434234652894,0.24962042809739818,1.0611048856788916,1.6972878673694387,0.8897977848683379,1.3513376957394685,0.41872039782896664,1.4838747284238347,1.2717631939056604,1.4956144678495593,1.5115271788120572,1.8762588949575285,1.6708858013530512,0.9279768730017076,0
0.986868751735582,0.21139027244284156,1.2808898922620076,1.8142831642123332,0.8468363319313709,1.3513376957394685,0.7117430543993667,1.2901344077987702,0.8484542896525983,1.7219012904083921,1.20895977993374,1.723201563693571,1.6708858013530512,1.120949612510699,0
0.9710366327237744,0.05734523348182643,1.207390360839748,1.6972878673694387,0.6774690655450817,0.9005989194622531,0.6276724871939559,1.1611838697203847,0.800705779845268,1.4956144678495593,1.074703683028844,1.799356918761517,1.622009875990868,1.2609829279066256,0
0.9393723947001875,0.15367023351341325,1.0974978575481902,1.1414175301744796,0.3387345327725784,0.8109783440621485,0.7117430543993667,1.3222147855646234,0.8952845588866915,1.314408223222381,1.4440716764647417,1.799356918761517,1.4250686473254812,0.9805747524430986,0
0.9073977229704518,0.13455515568612642,1.207390360839748,0.9656392305276139,0.29659926162280437,1.1264076241469096,1.2137178003347189,1.3222147855646234,0.18915755808267984,1.042156889831334,1.20895977993374,1.6462995874975594,1.2779616955000326,0.8405414370471718,0
0.9393723947001875,0.03823015565455663,0.9883189419402943,1.5220802764876726,0.5081017991587925,1.0359084156546274,1.256161193486974,0.96744354909532,-0.28189985597771244,0.6337798897447637,0.7727911919403209,1.3021072474357387,1.3268376208622157,0.8931393164885938,0
0.986868751735582,0.21139027244284156,0.7321409634879448,1.8142831642123332,0.4659665280090936,0.9005989194622531,0.7533702284525595,0.3868516142351563,-0.23506958674361933,0.8158700672725816,1.0079030884712632,1.0721479399757694,1.179730669036767,0.7879435576057808,0
0.8915656039586725,0.0768351167566981,0.7685339353571785,1.4341911266642398,0.3387345327725784,0.9005989194622531,0.7117430543993667,0.19374032062506466,-0.23506958674361933,0.6797444005770581,0.9738478834027381,1.0721479399757694,0.8845584139081584,0.6479102422098852,0
0.6686742029689973,-0.30771527247442837,0.5851419006433612,1.024422233331585,0.21150253753598813,0.8557886317621609,0.8790679697111632,0.48372177454768867,-0.32964836578495926,-0.31733191132270167,0.36936799343583837,0.9190906087118117,0.9089963765892718,0.5427144833271034,0
0.49358959272083713,-0.42315535033330204,0.14628547516085655,0.7025424898223631,-0.08509672408674111,0.4507387762772153,0.6701158803462112,0.8064126332511388,-0.32964836578495926,-0.5445026667820938,0.20171159925221147,0.7272089787858156,0.8107653501260061,0.40268116793117664,0
0.4616149209911297,-0.30771527247442837,-0.07349953142225932,0.5855471929795205,-0.1693672663862892,0.08962057540018452,0.7533702284525595,0.8384930110169346,0.2828180965508661,0.0,0.40342319850442293,0.6510536237178693,0.540510233417323,0.29748540904839477,0
0.4774470400029373,-0.36543531140385666,0.0,0.877750080704181,0.04213527114977405,0.22493007159255887,1.0463928850229225,1.0322333316419994,0.7538755106112583,0.13524173379488386,0.5036240903407344,0.6891313012518424,0.6636583983005575,0.3675020667463581,0
0.38214389222599954,-0.48050058381512845,0.03639297186929861,0.6146533399989302,0.04213527114977405,0.7204791355697865,1.0047657109697667,1.1932642474862378,0.18915755808267984,-0.13612566669552345,0.7387359868717362,0.6129759461838962,1.0077065787913493,0.4552790473725676,0
0.23872352000145453,-0.5768255838467152,-0.2925709503217131,-0.08788914982343285,-0.21232871932325628,0.8557886317621609,0.5444181390875703,1.0001529538762033,-0.09366053846818627,0.40749306718593076,0.7727911919403209,0.45917199379187323,1.0077065787913493,0.31524573197667194,0
0.2228914009896752,-0.6536607006034134,-0.5858554883270882,-0.3509858905286836,-0.42383125685931955,0.6308585601696819,0.41872039782896664,0.7416228507044023,0.42422714482629914,0.9511118010674654,0.9738478834027381,0.6891313012518424,0.9339135150091972,0.262647852535281,0
0.3660013395080997,-0.5768255838467152,-0.3296775098746738,-0.11699529684289454,-0.2544639904730303,0.7661680563620562,0.9631385369165741,0.6453817174069002,0.2828180965508661,0.7699055564402872,1.5783277733695782,1.0721479399757694,1.2530445570800637,0.5427144833271034,0
0.6686742029689973,-0.36543531140385666,0.10989250329155793,-0.029106147019461688,0.12723199523651516,0.9005989194622531,1.1304634522283705,0.6126723126260168,-0.5178876832944854,0.7699055564402872,1.7800393726217898,1.6082219099635862,1.5726547748897857,0.9457371959299847,0
0.8279266942053499,-0.24999523354500006,0.18267844703009026,-0.08788914982343285,0.1693672663862892,0.7661680563620562,0.7117430543993667,0.5158021523134846,-0.5178876832944854,0.9511118010674654,1.4106713791859513,1.9143365724915018,1.4744237484265637,0.9631559741865261,0
0.7481452317340992,-0.42315535033330204,0.03639297186929861,-0.1757782996468657,-0.08509672408674111,0.6308585601696819,0.6276724871939559,0.6453817174069002,-0.046830269234093135,0.588699311813109,1.20895977993374,1.4932422562336016,1.1303755679357284,0.5953123627684943,0
0.7164809937105123,-0.5577105060194284,0.21978500658311587,-0.2339905936857891,0.04213527114977405,0.9462878402545228,1.0463928850229225,1.1932642474862378,0.6124664623358254,0.40749306718593076,1.243014985002265,1.2252052712396593,0.9339135150091972,0.5427144833271034,0
0.8117841414874218,-0.38455038923114354,0.3660704817439724,-0.11699529684289454,0.4230050750720514,1.3513376957394685,1.3394155415933227,1.4190849458771555,1.0366936071621244,0.9060312231358106,1.1081039803076342,1.4932422562336016,1.0077065787913493,0.8757205382320215,0
0.9073977229704518,-0.24999523354500006,0.21978500658311587,-0.1757782996468657,0.3387345327725784,1.2617171203392838,1.2977883675401298,1.258054030032917,1.0366936071621244,1.268443712390167,0.9738478834027381,1.3401849249697118,1.0810204668346894,0.9805747524430986,0
0.9710366327237744,-0.17316011678830195,0.2925709503216482,0.08788914982343285,0.3387345327725784,0.9005989194622531,1.0047657109697667,1.0643137094078523,0.42422714482629914,1.1782825565268575,0.8061914892190517,1.0721479399757694,0.9827894403714239,0.8231226587906305,0
0.986868751735582,-0.07720992220431702,0.6950344039349192,0.5855471929795205,0.5081017991587925,0.8109783440621485,0.8790679697111632,0.8384930110169346,-0.4233089042531455,0.8158700672725816,0.7727911919403209,1.570144232429681,0.860120451227045,0.7705247793492396,0
0.9073977229704518,0.0,0.9512123823873336,0.3509858905286317,0.5502370703085665,0.9462878402545228,1.0463928850229225,0.6453817174069002,-0.09366053846818627,0.7699055564402872,1.1421591853761592,1.9524142500254749,0.9583514776903105,0.8931393164885938,0
0.9552045137119668,-0.019489883274871674,1.0611048856788916,-0.11699529684289454,0.3387345327725784,0.9462878402545228,1.256161193486974,0.7416228507044023,0.6124664623358254,1.540695045781214,1.5449274760908476,1.8381812174235554,1.1548135306168417,0.9105580947451352,0
0.8117841414874218,-0.19227519461557177,1.0611048856788916,-0.05878300280397117,0.1693672663862892,0.8557886317621609,1.256161193486974,0.903282793563671,0.6592967315698349,1.6768207124767374,1.6457832757169533,1.799356918761517,1.228606594398994,0.6479102422098852,0
0.6208674122274823,-0.23088015571773027,0.8413198790957758,0.08788914982343285,0.1693672663862892,0.8109783440621485,1.2137178003347189,0.7743322554852856,0.0,0.7248249785086325,1.1421591853761592,1.4163402800375902,0.9583514776903105,0.4378602691159952,0
0.6686742029689973,-0.09632500003158682,0.6222484601963869,-0.08788914982343285,0.04213527114977405,0.5860482724695897,1.3810427156464782,0.5485115570943678,-0.1404908077022794,0.22628682255883295,0.7387359868717362,0.7660332774478539,0.6636583983005575,0.5252957050705309,0
0.6366995312392899,-0.17316011678830195,0.3660704817439724,-0.05878300280397117,0.04213527114977405,0.8109783440621485,1.7581359394223264,0.8705733887827878,0.8484542896525983,0.9970763118996794,0.9404475861239477,0.8421886325158002,0.736972286343854,0.7005081216512762,0
0.49358959272083713,-0.42315535033330204,0.0,-0.029106147019461688,0.21150253753598813,1.5314574796319351,1.9670880287872783,1.4190849458771555,1.0835238763962176,1.6768207124767374,1.20895977993374,1.2252052712396593,0.8845584139081584,0.6653290204664576,0
0.4774470400029373,-0.34632023357658687,-0.03639297186929861,-0.11699529684289454,0.21150253753598813,1.6219566881242171,1.59081102411053,1.258054030032917,0.377396875592206,1.4956144678495593,0.9738478834027381,0.99524596377969,0.9583514776903105,0.5604748062553495,0
0.6050352932156747,-0.09632500003158682,0.10989250329155793,0.1757782996468657,0.21150253753598813,0.9005989194622531,0.9631385369165741,0.7095424729385492,-0.046830269234093135,0.8158700672725816,0.5710795926881094,0.7272089787858156,0.860120451227045,0.29748540904839477,0
0.6366995312392899,-0.05772003892944535,0.18267844703009026,0.3806627463131931,0.21150253753598813,0.4955490639773076,0.8374407956579704,0.6774620951727532,0.14140904827543305,0.5436187338815346,0.4368234957832133,0.7272089787858156,0.5898653345184053,0.2448875296070038,0
0.6528420839571898,0.0768351167566981,0.7685339353571785,0.49765804315608764,0.5081017991587925,0.8109783440621485,1.2137178003347189,0.8384930110169346,0.23598782731677298,0.9511118010674654,0.5710795926881094,0.9190906087118117,0.6880963609816273,0.7531060010926671,0
0.7642877844520273,0.15367023351341325,1.3172828641313061,0.6146533399989302,0.5081017991587925,0.9910981279545352,1.3394155415933227,0.6774620951727532,0.14140904827543305,0.9970763118996794,0.7387359868717362,1.3021072474357387,1.0810204668346894,0.9983350753713758,0
0.6845063219808049,-0.15404503896101512,0.6586414320656205,0.3509858905286317,0.12723199523651516,0.6756688478696943,1.256161193486974,0.6453817174069002,-0.1404908077022794,0.4985381559498799,0.5710795926881094,1.2632829487736323,0.860120451227045,0.5604748062553495,0
0.3979760112378071,-0.3268303503017152,-0.25617797845241447,-0.05878300280397117,0.12723199523651516,0.9005989194622531,1.59081102411053,1.0643137094078523,0.047748509807246785,0.5436187338815346,0.3025673988783172,0.8421886325158002,0.4178412442729876,0.38526238967460424,0
0.44578280197932213,-0.11544007785887365,0.21978500658311587,0.029106147019461688,0.7625657896318229,1.6667669758243093,2.0511585959926895,1.4838747284238347,1.0835238763962176,1.4956144678495593,0.6044798899668402,1.1102256175096747,0.7125343236627406,0.8057038805340581,0
0.8437588132171575,-0.019489883274871674,1.1709973889704495,0.3806627463131931,0.931933056018112,1.6667669758243093,1.799763113475482,1.4517943506579818,1.2249329246716507,2.0392332017310135,1.3098155795598456,1.9143365724915018,1.228606594398994,1.1031892895824529,0
0.8754230512407444,-0.2691103113722869,1.024711913809593,0.3806627463131931,0.2536378086857622,0.9005989194622531,1.2137178003347189,1.1932642474862378,0.42422714482629914,1.4956144678495593,1.5449274760908476,1.799356918761517,1.2041686317178804,0.9631559741865261,0
0.5572285024741597,-0.36543531140385666,0.25617797845241447,0.20488444666632738,-0.1693672663862892,0.5403593516773199,0.8374407956579704,1.1611838697203847,0.4710574140603923,1.042156889831334,1.0413033857500535,1.2632829487736323,0.8356824885459316,0.7531060010926671,0
0.4138081302496147,-0.34632023357658687,0.03639297186929861,0.08788914982343285,-0.08509672408674111,0.9005989194622531,0.8790679697111632,1.258054030032917,0.8484542896525983,1.1782825565268575,0.6378801872456306,0.804110954981827,0.6387412598805885,0.6830893433947037,0
0.44578280197932213,-0.30771527247442837,0.21978500658311587,0.029106147019461688,0.04213527114977405,1.1264076241469096,0.7533702284525595,0.935363171329467,0.18915755808267984,1.2233631344585123,0.7053356895929459,0.5360739699878847,0.860120451227045,0.6830893433947037,0
0.4774470400029373,-0.2691103113722869,0.14628547516085655,0.0,0.0,0.40504985548494554,0.20895208936495205,0.22582069839091776,-0.7529572700380213,0.8609506452041559,0.6044798899668402,0.6510536237178693,1.0077065787913493,0.6304914639533128,0
0.38214389222599954,-0.3268303503017152,-0.21978500658311587,-0.08788914982343285,-0.29659926162280437,-0.13530949619237434,0.04162717405315563,0.03208037776585312,-0.6592967315699185,0.588699311813109,0.23511189653100184,0.4979962924539116,0.7618894247637794,0.5953123627684943,0
0.3501692204962921,-0.3268303503017152,-0.25617797845241447,-0.05878300280397117,-0.29659926162280437,0.1801197838924666,0.7117430543993667,0.48372177454768867,-0.4701391734871551,0.40749306718593076,-0.03340029727879036,0.2299593074599692,0.29469307938975303,0.4552790473725676,0
0.4616149209911297,-0.21176507789044344,0.0,0.08788914982343285,-0.042961452937042205,0.4507387762772153,1.1304634522283705,0.8384930110169346,-0.1882393175095262,0.0901611558633095,0.06745550234731537,0.30611466252791547,0.27025511670868324,0.21004997309389006,0
0.3660013395080997,-0.23088015571773027,0.07349953142225932,-0.029106147019461688,-0.08509672408674111,0.40504985548494554,1.2137178003347189,1.0322333316419994,0.6124664623358254,0.0,0.2685121938097326,0.5741516475218579,0.5160722707362532,0.31524573197667194,0
0.143420372224545,-0.40366546705841333,-0.14628547516085655,-0.2339905936857891,-0.29659926162280437,0.7204791355697865,1.2137178003347189,1.1291034919545315,0.8484542896525983,0.6797444005770581,0.3025673988783172,0.7272089787858156,0.49163430805513975,0.5604748062553495,0
0.17508461024813193,-0.40366546705841333,-0.402463453613271,-0.2636674494702986,-0.29659926162280437,0.9005989194622531,0.9631385369165741,0.903282793563671,0.42422714482629914,1.2233631344585123,0.4368234957832133,0.6129759461838962,0.49163430805513975,0.4901166038857124,0
0.28653031074296953,-0.2886001946471586,-0.3660704817439724,-0.14610144386235624,-0.2544639904730303,0.4955490639773076,0.7117430543993667,0.48372177454768867,-0.4233089042531455,1.0872374677629888,0.5036240903407344,0.38301663872392694,0.5649481960984363,0.3500832884897857,0
0.23872352000145453,-0.36543531140385666,-0.3296775098746738,-0.08788914982343285,-0.42383125685931955,0.3602395677849332,0.586045313140763,0.48372177454768867,-0.6592967315699185,0.6337798897447637,0.3025673988783172,0.30611466252791547,0.4667171696351708,0.4378602691159952,0
0.3023624297547771,-0.3268303503017152,-0.18267844703015515,-0.08788914982343285,-0.21232871932325628,0.6308585601696819,0.586045313140763,1.1932642474862378,0.9889450973547942,1.042156889831334,0.6044798899668402,0.8421886325158002,0.7863273874448928,0.7531060010926671,0
0.6208674122274823,0.019115077827269795,0.10989250329155793,0.11699529684289454,0.2536378086857622,0.4955490639773076,0.4603475718821594,1.5159551061896879,2.166129512219198,2.175358868426537,1.4781268815332669,1.378262602503617,1.5232996737887468,1.068351733069308,0
0.7959520224756143,0.17278531134068303,0.10989250329155793,0.23399059368573719,0.3808698039222773,0.13530949619237434,0.33464983062355574,0.6453817174069002,0.7538755106112583,2.5377713576808936,1.4781268815332669,0.9571682862457848,1.4499857857454503,0.9983350753713758,0
0.6050352932156747,-0.03860496110215851,-0.10989250329155793,0.11699529684289454,0.1693672663862892,0.1801197838924666,0.33464983062355574,0.19374032062506466,-0.5178876832944854,1.4956144678495593,0.6719353923142152,0.3449389611899538,0.8845584139081584,0.5778935845119219,0
0.4616149209911297,-0.15404503896101512,-0.03639297186929861,0.11699529684289454,0.0,0.4507387762772153,0.4603475718821594,0.7416228507044023,0.047748509807246785,0.588699311813109,0.23511189653100184,0.38301663872392694,0.8356824885459316,0.40268116793117664,0
0.6366995312392899,-0.15404503896101512,0.14628547516085655,0.23399059368573719,-0.042961452937042205,0.5860482724695897,0.8790679697111632,0.935363171329467,0.7070452413771653,1.0872374677629888,0.3025673988783172,0.6891313012518424,0.860120451227045,0.5953123627684943,0
0.6208674122274823,-0.24999523354500006,0.07349953142225932,0.11699529684289454,0.0,0.5403593516773199,0.7117430543993667,0.903282793563671,0.9889450973547942,1.4956144678495593,0.537679295409319,0.804110954981827,0.7618894247637794,0.7705247793492396,0
0.42995068296751454,-0.23088015571773027,0.0,0.0,0.12723199523651516,0.5403593516773199,0.20895208936495205,1.3222147855646234,1.3663419729470838,1.4045693790856906,0.7727911919403209,0.99524596377969,0.8845584139081584,0.8057038805340581,0
0.3660013395080997,-0.19227519461557177,-0.03639297186929861,0.08788914982343285,-0.08509672408674111,0.6308585601696819,0.29302265657036297,1.4190849458771555,0.8484542896525983,1.2233631344585123,0.537679295409319,0.6891313012518424,0.7618894247637794,0.5252957050705309,0
0.38214389222599954,-0.2886001946471586,-0.10989250329155793,0.08788914982343285,-0.21232871932325628,0.8109783440621485,0.586045313140763,1.1611838697203847,0.23598782731677298,0.9060312231358106,0.20171159925221147,0.03807767753397314,0.44227920695405737,0.3500832884897857,0
0.5252538307444523,-0.17316011678830195,0.07349953142225932,0.1461014438623043,0.12723199523651516,0.7204791355697865,0.4603475718821594,1.4838747284238347,0.8484542896525983,1.0872374677629888,0.40342319850442293,0.1149796537299846,0.736972286343854,0.5078769268139586,0
0.5888927404977748,-0.03860496110215851,0.14628547516085655,0.11699529684289454,0.12723199523651516,0.6756688478696943,0.377093223775811,1.5159551061896879,1.5545812904565264,1.4956144678495593,0.5710795926881094,0.38301663872392694,0.860120451227045,0.5252957050705309,0
0.4616149209911297,-0.21176507789044344,-0.07349953142225932,0.05878300280397117,-0.1693672663862892,0.6308585601696819,0.20895208936495205,0.6774620951727532,0.6592967315698349,1.268443712390167,0.3359676961571076,0.3449389611899538,0.49163430805513975,0.4901166038857124,0
0.4774470400029373,-0.21176507789044344,0.03639297186929861,0.3806627463131931,0.1693672663862892,0.4507387762772153,-0.20895208936495205,0.2579010761567709,-0.6115482217625882,0.9060312231358106,0.3025673988783172,0.4979962924539116,0.5649481960984363,0.7005081216512762,0
0.7164809937105123,0.23050535027011135,0.5487489287740627,0.8486439336847194,0.7625657896318229,0.5860482724695897,0.04162717405315563,0.7743322554852856,0.18915755808267984,1.1332019785952028,0.6378801872456306,0.8810129311778385,1.0565825041535761,0.8579602153037442,0
0.8437588132171575,0.3650605059562548,0.8413198790957758,0.9656392305276139,0.8468363319313709,0.9005989194622531,0.7117430543993667,1.1291034919545315,1.2717631939056604,1.4505338899179046,0.839591786497842,1.1102256175096747,1.228606594398994,0.8231226587906305,0
0.6050352932156747,0.03823015565455663,0.4388564254825047,0.6728656340378536,0.6353337943953077,0.8557886317621609,1.2137178003347189,0.96744354909532,0.2828180965508661,1.3594888011540358,0.7727911919403209,0.9190906087118117,1.0077065787913493,0.6653290204664576,0
0.19091672925993952,-0.19227519461557177,-0.402463453613271,0.29277359648976026,0.1693672663862892,0.40504985548494554,1.0047657109697667,0.48372177454768867,-0.9880268567816406,0.9060312231358106,0.5036240903407344,0.4210943162579001,0.8107653501260061,0.2448875296070038,0
-0.07947102876513015,-0.36543531140385666,-0.6586414320656855,0.029106147019461688,-0.42383125685931955,-0.13530949619237434,-0.08407056720544805,-0.19374032062506466,-0.5178876832944854,0.31733191132270167,0.20171159925221147,-0.07690197619601147,0.49163430805513975,-0.03517910118481855,0
-0.04780679074151501,-0.42315535033330204,-0.21978500658311587,0.0,-0.33956071455977144,0.0,-0.4603475718821965,-0.16165994285921154,0.2828180965508661,0.4525736451175855,0.16831130197342112,0.2299593074599692,0.2213791913464565,0.1226145371393543,0
0.17508461024813193,-0.2691103113722869,0.10989250329155793,0.23399059368573719,0.2536378086857622,0.6308585601696819,0.41872039782896664,0.4195610190159824,0.2828180965508661,0.6337798897447637,0.36936799343583837,0.8810129311778385,0.3684861431719052,0.29748540904839477,0
0.38214389222599954,-0.07720992220431702,0.07349953142225932,0.5558703371949592,0.5502370703085665,0.5860482724695897,0.7117430543993667,0.6126723126260168,0.518805923867639,0.6337798897447637,0.7053356895929459,1.1102256175096747,0.8845584139081584,0.47269782562914,0
0.42995068296751454,-0.05772003892944535,0.03639297186929861,0.7316486368418248,0.5081017991587925,-0.13530949619237434,-0.12569774125860367,0.48372177454768867,0.8952845588866915,1.042156889831334,0.7727911919403209,0.8421886325158002,0.9827894403714239,0.47269782562914,0
0.3660013395080997,-0.07720992220431702,0.18267844703009026,0.7025424898223631,0.29659926162280437,-0.31542928008484095,-0.20895208936495205,0.7095424729385492,0.7538755106112583,1.042156889831334,0.3359676961571076,0.6129759461838962,0.4667171696351708,0.2274687513504314,0
0.38214389222599954,-0.17316011678830195,0.25617797845241447,0.8486439336847194,0.21150253753598813,0.22493007159255887,0.7117430543993667,1.0322333316419994,0.09457877904133992,0.4985381559498799,0.0,0.6891313012518424,0.27025511670868324,0.19263119483731764,0
0.3979760112378071,-0.23088015571773027,0.21978500658311587,0.790431639645796,0.4230050750720514,0.6308585601696819,1.0463928850229225,0.7416228507044023,-0.5647179525285786,0.4525736451175855,0.16831130197342112,0.6129759461838962,0.3684861431719052,0.3500832884897857,0
0.4138081302496147,-0.15404503896101512,0.4388564254825047,0.5855471929795205,0.6774690655450817,0.5860482724695897,0.8790679697111632,0.3868516142351563,-0.28189985597771244,0.9511118010674654,0.5036240903407344,0.4979962924539116,0.5160722707362532,0.42009994618774904,0
0.49358959272083713,0.0,0.9148194105180351,0.7316486368418248,0.7196043366948558,0.7204791355697865,1.172090626281526,0.903282793563671,0.6592967315698349,1.1782825565268575,0.5036240903407344,0.7660332774478539,0.8356824885459316,0.4552790473725676,0
0.5730606214859673,0.09595019458398495,1.0974978575481902,1.024422233331585,0.6774690655450817,0.7661680563620562,1.2977883675401298,1.258054030032917,0.7070452413771653,1.1332019785952028,0.3025673988783172,1.0721479399757694,0.8107653501260061,0.4378602691159952,0
0.6050352932156747,0.03823015565455663,1.0611048856788916,1.0535283803510467,0.8468363319313709,0.3602395677849332,0.7533702284525595,0.8064126332511388,0.2828180965508661,0.9970763118996794,0.4368234957832133,0.9190906087118117,0.5898653345184053,0.40268116793117664,0
0.5094217117326447,-0.09632500003158682,1.207390360839748,0.9656392305276139,0.931933056018112,0.22493007159255887,0.501974745935315,0.935363171329467,1.0835238763962176,1.4045693790856906,0.839591786497842,0.8810129311778385,0.6387412598805885,0.47269782562914,0
0.33433710148448453,-0.11544007785887365,0.9883189419402943,0.8486439336847194,0.8047010607815969,0.5403593516773199,0.7117430543993667,1.3870045681113026,1.3185934631397533,1.6768207124767374,0.6378801872456306,0.804110954981827,0.6143032971994751,0.29748540904839477,0
0.17508461024813193,-0.13455515568614346,0.3296775098746738,0.877750080704181,0.8468363319313709,0.4955490639773076,0.501974745935315,1.0643137094078523,0.6592967315698349,1.2233631344585123,0.06745550234731537,0.15305733126395774,0.29469307938975303,-0.05259787944139095,0
0.07947102876510193,-0.34632023357658687,-0.07349953142225932,0.8195377866652577,0.8897977848683379,0.4507387762772153,0.5444181390875703,1.0643137094078523,1.1771844148643205,1.2233631344585123,0.10085579962610573,-0.15305733126388985,0.12266898914437892,-0.14037486006760044,0
-0.06363890975332258,-0.519105544917287,-0.3296775098746738,0.3509858905286317,0.7196043366948558,0.9005989194622531,1.0047657109697667,1.5159551061896879,1.6014115596906195,1.2233631344585123,0.16831130197342112,0.03807767753397314,0.24581715402756987,-0.1226145371393543,0
-0.09561358148303002,-0.3268303503017152,-0.3660704817439724,0.32187974350917004,0.6774690655450817,0.9910981279545352,0.6701158803462112,1.1291034919545315,1.0835238763962176,1.2233631344585123,0.2685121938097326,0.30611466252791547,0.49163430805513975,-0.03517910118481855,0
0.09561358148303002,-0.09632500003158682,-0.03639297186929861,0.790431639645796,0.931933056018112,0.5403593516773199,0.08407056720541094,0.5158021523134846,0.7538755106112583,1.4956144678495593,0.6044798899668402,0.5741516475218579,0.7863273874448928,0.15745209365246804,0
0.33433710148448453,-0.019489883274871674,0.18267844703009026,0.9074269364886905,0.931933056018112,0.3602395677849332,0.0,0.6126723126260168,0.7070452413771653,1.540695045781214,0.7053356895929459,0.804110954981827,0.9339135150091972,0.31524573197667194,0
0.5094217117326447,0.0,0.5123559569048289,1.1414175301744796,0.974068327167886,0.4955490639773076,-0.2930226565704001,0.8064126332511388,0.7070452413771653,1.3594888011540358,0.839591786497842,1.2252052712396593,1.179730669036767,0.6127311410250667,0
0.6528420839571898,0.09595019458398495,1.0974978575481902,1.6093987175460058,1.01620359831766,0.3602395677849332,-0.4603475718821965,0.7416228507044023,1.1771844148643205,1.767865801240606,1.377271081907161,1.9524142500254749,1.4744237484265637,0.7353456781643899,0
0.6366995312392899,0.05734523348182643,0.9512123823873336,1.2875189740367838,0.3387345327725784,-0.09049920849228209,-0.041627174053192745,0.7743322554852856,0.8952845588866915,1.540695045781214,1.5115271788120572,1.8381812174235554,1.2530445570800637,0.42009994618774904,0
0.3501692204962921,-0.23088015571773027,0.10989250329155793,0.6728656340378536,-0.2544639904730303,-0.3602395677849332,0.04162717405315563,0.7743322554852856,0.23598782731677298,0.4525736451175855,0.6378801872456306,0.5360739699878847,0.6880963609816273,0.05225633476968614,0
0.09561358148303002,-0.30771527247442837,-0.21978500658311587,0.7025424898223631,-0.042961452937042205,-0.40592848857712305,-0.2930226565704001,0.580591934860221,0.32964836578495926,0.36241248925435643,0.06745550234731537,-0.3061146625278476,0.27025511670868324,-0.05259787944139095,0
0.06363890975332258,-0.23088015571773027,-0.18267844703015515,0.8195377866652577,0.04213527114977405,-0.22580870468465644,-0.37627700467674846,0.3547712364693032,0.377396875592206,0.7248249785086325,0.16831130197342112,-0.3061146625278476,0.29469307938975303,-0.1051957588827819,0
0.3023624297547771,-0.05772003892944535,0.21978500658311587,1.1705236771939413,0.08427054229947296,-0.09049920849228209,-0.1673249153117964,0.7416228507044023,1.2717631939056604,1.2233631344585123,0.5710795926881094,0.26803698499394235,0.736972286343854,0.17487087190904044,0
0.7323131127223199,0.17278531134068303,1.1709973889704495,1.7269647231540002,0.4230050750720514,-0.13530949619237434,0.04162717405315563,1.3222147855646234,2.355287070301878,2.311484535122141,1.1421591853761592,1.4163402800375902,1.400630684644368,0.8231226587906305,0
0.9393723947001875,0.24962042809739818,1.5734608425837207,1.7269647231540002,0.3387345327725784,-0.13530949619237434,0.29302265657036297,0.96744354909532,1.2717631939056604,2.356565113053715,1.6457832757169533,1.9524142500254749,1.6708858013530512,1.0331726318844894,0
0.6686742029689973,0.0768351167566981,1.2444969203927088,1.5220802764876726,0.21150253753598813,-0.22580870468465644,0.33464983062355574,0.5485115570943678,0.14140904827543305,1.4045693790856906,1.4781268815332669,1.3401849249697118,1.3268376208622157,0.6127311410250667,0
0.49358959272083713,-0.03860496110215851,1.207390360839748,1.6972878673694387,0.7196043366948558,-0.31542928008484095,0.4603475718821594,0.7095424729385492,0.09457877904133992,0.8158700672725816,0.7053356895929459,0.9190906087118117,0.8107653501260061,0.19263119483731764,0
0.5888927404977748,0.13455515568612642,1.3536758360006047,1.8142831642123332,0.974068327167886,0.1801197838924666,0.8374407956579704,0.7095424729385492,-0.046830269234093135,0.7248249785086325,0.4368234957832133,1.3401849249697118,0.6143032971994751,0.21004997309389006,0
0.6050352932156747,0.24962042809739818,1.1709973889704495,1.6972878673694387,0.6774690655450817,0.7661680563620562,1.088020059076115,0.6126723126260168,0.18915755808267984,0.8158700672725816,0.9404475861239477,1.761279241227544,0.7618894247637794,0.2800666307918223,0
0.5252538307444523,0.0768351167566981,1.134604417101151,1.5511864235071344,0.8047010607815969,0.8109783440621485,1.088020059076115,0.8064126332511388,1.0366936071621244,1.3594888011540358,1.20895977993374,1.6843772650315325,0.9089963765892718,0.10485421421107709,0
0.5730606214859673,-0.019489883274871674,1.207390360839748,1.4341911266642398,0.931933056018112,0.6756688478696943,0.8374407956579704,1.0322333316419994,1.3185934631397533,1.5857756237128688,0.8729920837766324,1.2632829487736323,0.860120451227045,0.08743543595453575,0
0.5413963834623522,0.09595019458398495,1.0974978575481902,1.668181720349977,0.7196043366948558,0.9462878402545228,0.6701158803462112,1.3870045681113026,1.8364811464342388,1.4505338899179046,0.4702237930619441,0.9571682862457848,0.6143032971994751,0.2448875296070038,0
0.3660013395080997,0.03823015565455663,1.024711913809593,1.6972878673694387,0.6774690655450817,0.9462878402545228,0.9631385369165741,1.806565587127285,2.873174753596363,1.9490720458677844,0.7727911919403209,1.187127593705754,0.6143032971994751,0.2448875296070038,0
0.3501692204962921,-0.30771527247442837,0.7685339353571785,0.9953160863121233,0.6774690655450817,0.6756688478696943,1.172090626281526,1.6128252665022202,2.072468973751012,2.4476102018176644,1.4781268815332669,1.5313199337675747,1.1059376052546148,0.3500832884897857,0
0.6686742029689973,-0.2691103113722869,0.6950344039349192,0.9953160863121233,0.4659665280090936,0.1801197838924666,0.9206951437643188,0.96744354909532,0.377396875592206,2.175358868426537,1.8474948749691646,1.4932422562336016,1.72024090245409,0.8231226587906305,0
0.8437588132171575,0.21139027244284156,0.8413198790957758,1.668181720349977,0.6774690655450817,-0.3602395677849332,0.6276724871939559,0.3868516142351563,-0.6115482217625882,1.4505338899179046,1.5449274760908476,1.2252052712396593,1.8673478542795823,0.7179268999078486,0
0.6050352932156747,0.345945428128985,0.5123559569048289,1.4050849796447782,1.0591650512546271,-0.721357768661964,0.377093223775811,0.09687016031253233,-1.1294359050570737,0.9511118010674654,1.0079030884712632,0.6510536237178693,1.2779616955000326,0.15745209365246804,0
0.33433710148448453,0.0,-0.07349953142225932,0.6728656340378536,0.7625657896318229,-0.2706189923847487,0.41872039782896664,0.289981453922624,-1.2240146840984134,0.4985381559498799,0.5710795926881094,0.2299593074599692,0.736972286343854,-0.05259787944139095,0
0.3660013395080997,-0.3268303503017152,-0.2925709503217131,0.7025424898223631,0.12723199523651516,0.4507387762772153,0.7949974025057152,0.580591934860221,-0.28189985597771244,0.40749306718593076,0.5036240903407344,0.3449389611899538,0.7618894247637794,0.05225633476968614,0
0.33433710148448453,-0.30771527247442837,-0.25617797845241447,0.6146533399989302,0.21150253753598813,0.7204791355697865,1.2137178003347189,0.6126723126260168,0.9889450973547942,1.042156889831334,0.7727911919403209,0.5360739699878847,0.860120451227045,0.10485421421107709,0
0.23872352000145453,-0.23088015571773027,-0.25617797845241447,-0.11699529684289454,0.7196043366948558,1.1264076241469096,1.7165087653691335,1.0963940871737055,1.6014115596906195,1.9490720458677844,0.9404475861239477,0.4210943162579001,0.7863273874448928,0.0348375565131448,0
0.38214389222599954,-0.17316011678830195,-0.21978500658311587,0.029106147019461688,1.0591650512546271,1.3970266165316583,1.9254608547340857,1.6776150490488995,2.166129512219198,2.1302782904949624,1.0413033857500535,0.4979962924539116,0.7618894247637794,-0.017760322928246145,0
0.6686742029689973,-0.03860496110215851,0.14628547516085655,0.5855471929795205,0.8047010607815969,1.0815973364468972,1.7165087653691335,1.6776150490488995,2.448947608770064,1.90310753503549,1.074703683028844,0.8421886325158002,0.860120451227045,0.17487087190904044,0
0.7164809937105123,-0.13455515568614346,0.6950344039349192,0.20488444666632738,0.3387345327725784,0.6308585601696819,1.5483676309582746,1.580744888736367,1.9310599254755787,1.9490720458677844,1.3098155795598456,1.1102256175096747,1.0321445414724626,0.42009994618774904,0
0.6208674122274823,-0.19227519461557177,0.8049269072264771,0.1461014438623043,0.1693672663862892,0.2706189923847487,1.172090626281526,1.1611838697203847,0.42422714482629914,1.540695045781214,1.377271081907161,1.3021072474357387,1.0077065787913493,0.38526238967460424,0
0.5888927404977748,-0.11544007785887365,0.47596298503553036,0.49765804315608764,0.3387345327725784,-0.1801197838924666,0.29302265657036297,0.2579010761567709,-1.177184414864404,0.40749306718593076,0.7387359868717362,1.187127593705754,0.736972286343854,0.2274687513504314,0
0.5413963834623522,-0.11544007785887365,0.21978500658311587,0.1757782996468657,0.4659665280090936,-0.13530949619237434,0.04162717405315563,-0.29061048093759695,-1.3654237323738465,0.04508057793165475,0.3025673988783172,0.6510536237178693,0.5649481960984363,0.2274687513504314,0
0.5888927404977748,-0.07720992220431702,0.25617797845241447,0.1757782996468657,0.5931985232456087,0.22493007159255887,0.41872039782896664,0.12895053807838544,-0.5178876832944854,1.1332019785952028,1.0413033857500535,0.8421886325158002,1.0565825041535761,0.42009994618774904,0
0.7801199034638349,0.1919003891679699,0.6222484601963869,0.5558703371949592,0.7196043366948558,0.2706189923847487,0.5444181390875703,0.6126723126260168,0.2828180965508661,1.8580269571039156,1.746639075343059,1.4551645786996963,1.622009875990868,0.7353456781643899,0
0.8595909322289368,0.21139027244284156,1.024711913809593,0.3509858905286317,0.7625657896318229,0.4507387762772153,0.7117430543993667,0.6774620951727532,0.7070452413771653,1.6317401345450826,1.612382978438163,1.4932422562336016,1.6708858013530512,0.6304914639533128,0
0.7801199034638349,0.09595019458398495,0.9883189419402943,0.3509858905286317,0.8897977848683379,0.9005989194622531,1.2137178003347189,1.0322333316419994,1.1303541456302273,2.175358868426537,1.6457832757169533,1.378262602503617,1.5726547748897857,0.2448875296070038,0
0.6366995312392899,0.23050535027011135,0.47596298503553036,0.4679811873715263,0.8897977848683379,1.216028199547094,1.4651132828519262,1.7738561823464016,2.166129512219198,2.9461483577674636,1.981750971874061,1.4163402800375902,1.4744237484265637,0.15745209365246804,0
0.5252538307444523,0.17278531134068303,0.0,0.2636674494702986,0.8468363319313709,1.1264076241469096,1.172090626281526,1.7417758045806058,2.684935436086837,2.855103269003595,1.6457832757169533,0.8421886325158002,1.2530445570800637,0.3675020667463581,0
0.5252538307444523,0.03823015565455663,0.0,0.3509858905286317,0.974068327167886,0.8557886317621609,0.8790679697111632,1.0643137094078523,1.6959903387319595,2.40164569098537,1.1081039803076342,0.6129759461838962,1.1303755679357284,0.5778935845119219,0
0.5572285024741597,0.15367023351341325,0.25617797845241447,0.5558703371949592,1.01620359831766,1.0359084156546274,0.9631385369165741,1.1291034919545315,1.2249329246716507,2.4476102018176644,1.20895977993374,0.8421886325158002,1.400630684644368,0.5953123627684943,0
0.5572285024741597,0.28822538919953966,0.10989250329155793,0.5267641901754975,0.931933056018112,1.1264076241469096,0.9631385369165741,1.3549241903454494,1.9778901947096719,2.6738970243764166,1.4440716764647417,0.4979962924539116,1.4744237484265637,0.4378602691159952,0
0.6050352932156747,0.3073404670268265,-0.14628547516085655,0.6437594870183919,0.7196043366948558,0.4955490639773076,0.41872039782896664,0.8384930110169346,1.8364811464342388,2.4476102018176644,1.243014985002265,0.38301663872392694,1.1059376052546148,0.4552790473725676,0
0.8117841414874218,0.4805005838151114,0.5123559569048289,0.9074269364886905,0.7196043366948558,-0.04481028770009226,0.12569774125860367,0.6126723126260168,0.800705779845268,1.767865801240606,1.1421591853761592,1.0721479399757694,1.1303755679357284,0.7179268999078486,0
0.9232298419822594,0.6150557395012549,1.2808898922620076,0.8486439336847194,0.7196043366948558,-0.04481028770009226,0.33464983062355574,0.6453817174069002,-0.1882393175095262,1.268443712390167,1.1755594826549496,1.2632829487736323,1.2041686317178804,0.6653290204664576,0
0.6050352932156747,0.21139027244284156,0.6950344039349192,0.3806627463131931,0.1693672663862892,-0.22580870468465644,0.0,0.16103091584423856,-0.4701391734871551,1.042156889831334,1.1421591853761592,0.5360739699878847,0.7863273874448928,0.1226145371393543,0
0.2070592819778676,-0.38455038923114354,-0.3296775098746738,-0.14610144386235624,-0.33956071455977144,-0.5860482724695897,-0.2930226565704001,-0.12895053807838544,0.09457877904133992,0.31733191132270167,0.7053356895929459,0.0,0.3440481804908354,-0.17521241658074524,0
0.2706981917311902,-0.5577105060194284,-0.14628547516085655,-0.2339905936857891,0.04213527114977405,-0.4955490639773076,0.04162717405315563,0.06416075553170623,0.2828180965508661,0.40749306718593076,0.2685121938097326,0.26803698499394235,0.3684861431719052,0.15745209365246804,0
0.3979760112378071,-0.2691103113722869,0.14628547516085655,-0.14610144386235624,0.2536378086857622,-0.22580870468465644,0.04162717405315563,-0.12895053807838544,-0.4233089042531455,0.8609506452041559,0.4702237930619441,0.45917199379187323,0.49163430805513975,0.4378602691159952,0
0.3501692204962921,-0.11544007785887365,0.03639297186929861,0.1461014438623043,-0.042961452937042205,-0.04481028770009226,-0.20895208936495205,-0.48372177454763143,-0.6115482217625882,0.4985381559498799,0.7727911919403209,0.38301663872392694,0.5160722707362532,0.19263119483731764,0
0.4138081302496147,-0.09632500003158682,0.14628547516085655,0.5558703371949592,-0.042961452937042205,-0.22580870468465644,-0.2513954825172445,-0.6126723126260168,-0.7061270008040116,0.5436187338815346,0.6378801872456306,0.45917199379187323,0.44227920695405737,-0.0703582023696371,0
0.28653031074296953,-0.24999523354500006,0.0,0.2636674494702986,-0.2544639904730303,-0.9462878402544429,-0.2930226565704001,-0.5805919348601638,-1.4590842708420328,0.6797444005770581,0.20171159925221147,0.15305733126395774,0.09823102646326555,-0.08777698062620949,0
-0.031974671729707436,-0.38455038923114354,-0.21978500658311587,-0.05878300280397117,-0.8897977848684131,-1.036787048746805,-0.041627174053192745,-0.29061048093759695,-1.177184414864404,-0.1820901775277374,0.16831130197342112,-0.38301663872392694,-0.024437962681113378,-0.05259787944139095,0
0.12727781950661693,-0.07720992220431702,-0.03639297186929861,0.11699529684289454,-0.7625657896318979,-0.7661680563620562,0.08407056720541094,-0.29061048093759695,-0.6115482217625882,-0.13612566669552345,0.4702237930619441,-0.1149796537299846,0.2213791913464565,-0.08777698062620949,0
0.3023624297547771,-0.03860496110215851,-0.402463453613271,0.0,-0.6782952473323498,-1.1712179118470019,-0.7117430543994039,-0.7095424729385492,-1.4590842708420328,0.36241248925435643,0.3359676961571076,-0.19113500879786297,0.0,-0.3504248331614905,0
0.015832119011807574,-0.40366546705841333,-0.9512123823873336,-0.2339905936857891,-0.8476625137186391,-1.306527408039376,-1.0880200590761524,-0.7743322554852284,-2.024720463943765,-0.4994220888504391,-0.03340029727879036,-0.8041109549817591,-0.29469307938975303,-0.385603934346309,0
0.031974671729707436,-0.2691103113722869,-0.25617797845241447,-0.11699529684289454,-0.4659665280090936,-0.4955490639773076,-0.37627700467674846,-0.48372177454763143,-1.4122540016079397,-0.5445026667820938,0.16831130197342112,-0.26803698499394235,0.09823102646326555,0.05225633476968614,0
0.4138081302496147,0.03823015565455663,0.21978500658311587,-0.05878300280397117,-0.33956071455977144,-0.1801197838924666,-0.1673249153117964,-0.3874806412501293,-0.9411965875475474,0.4985381559498799,0.537679295409319,0.38301663872392694,0.5898653345184053,0.2274687513504314,0
0.2545556390132621,-0.23088015571773027,-0.47596298503553036,-0.14610144386235624,-0.7625657896318979,-0.40592848857712305,-0.5444181390876074,-0.3226908587034501,-1.2240146840984134,-0.04596451083221396,0.20171159925221147,-0.1149796537299846,0.3684861431719052,-0.1051957588827819,0
-0.19091672925996775,-0.5768255838467152,-0.9512123823873336,-0.29277359648976026,-0.805527242568865,-0.5412379847694974,-0.5860453131408002,-0.22582069839091776,-1.5536630498833728,-0.997960244800319,-0.23511189653100184,-0.5741516475217899,-0.04935510110103879,-0.28040817546352714,0
-0.2865303107429978,-0.6536607006034134,-0.8420334667795027,-0.6734363428029534,-0.8476625137186391,-0.7661680563620562,-0.7117430543994039,-0.4195610190159824,-2.071550733177858,-0.997960244800319,-0.503624090340794,-0.4979962924539116,-0.3684861431719052,-0.385603934346309,0
-0.2070592819778676,-0.7496108951873983,-0.6222484601963869,-0.9074269364887424,-1.3557643128774315,-1.0815973364468972,-0.7533702284525595,-0.5485115570943678,-2.1183810024119514,-1.4054533119862498,-0.7387359868717362,-0.6510536237178014,-0.5649481960984363,-0.4382018137877,0
-0.04780679074151501,-0.5959406616739851,-0.07349953142225932,-0.46855189613662596,-1.1863970464911424,-1.036787048746805,-0.5444181390876074,-0.5805919348601638,-1.4590842708420328,-1.5415789786817733,-0.4027682907146883,-0.6891313012517746,-0.31961021780972204,-0.1226145371393543,0
0.12727781950661693,-0.34632023357658687,0.21978500658311587,0.05878300280397117,-0.3816959857095455,-0.721357768661964,-0.6276724871939559,-0.5485115570943678,-0.5647179525285786,0.0,0.16831130197342112,-0.07690197619601147,0.29469307938975303,-0.05259787944139095,0
0.09561358148303002,-0.34632023357658687,0.0,0.05878300280397117,-0.8897977848684131,-0.5860482724695897,-0.5860453131408002,-0.3874806412501293,-0.6592967315699185,0.9060312231358106,0.40342319850442293,0.3449389611899538,0.4667171696351708,-0.3504248331614905,0
-0.015832119011807574,-0.40366546705841333,-0.03639297186929861,-0.11699529684289454,-1.6953250274372782,-0.9910981279545352,-0.20895208936495205,-0.5164311793285147,-1.8364811464342388,0.0,0.03340029727879036,0.03807767753397314,0.0,-0.4730393703008137,0
-0.015832119011807574,-0.4422704281605718,0.03639297186929861,-0.08788914982343285,-1.1442617753414435,-1.1264076241469096,0.04162717405315563,-0.5805919348601638,-2.071550733177858,-0.7707894893409268,-0.4368234957832133,-0.5741516475217899,-0.3934032815918742,-0.3155872766483457,0
0.015832119011807574,-0.519105544917287,-0.07349953142225932,-0.05878300280397117,-0.5510632520958347,-0.5412379847694974,0.29302265657036297,-0.45164139678177834,-1.600493319117466,-0.6806283334776173,-0.6044798899668997,-0.7272089787857476,-0.5160722707362532,-0.26298939720695474,0
0.015832119011807574,-0.519105544917287,0.03639297186929861,-0.08788914982343285,-0.7204305184821239,-0.1801197838924666,0.41872039782896664,-0.45164139678177834,-1.600493319117466,-0.6806283334776173,-0.7053356895930055,-0.6122293250557631,-0.6143032971994751,-0.3330060549049181,0
0.0,-0.42315535033330204,-0.07349953142225932,-0.029106147019461688,-0.5931985232456087,-0.4507387762772153,-0.041627174053192745,-0.8064126332510815,-2.071550733177858,-0.6806283334776173,-0.6719353923142152,-0.8041109549817591,-0.5160722707362532,-0.3330060549049181,0
-0.143420372224545,-0.519105544917287,-0.6586414320656855,-0.20488444666632738,-0.8476625137186391,-1.036787048746805,-0.6692996612471486,-1.0001529538761462,-2.166129512219198,-0.9519957339680246,-0.9063923810554227,-1.2252052712396593,-0.540510233417323,-0.5082184714856633,0
-0.23872352000148275,-0.8268208173917153,-0.7685339353572435,-0.5855471929795205,-1.8217308408865251,-1.577146400424125,-0.7949974025057522,-0.7422518777194325,-1.5068327806492796,-1.2242470673590715,-1.2764152822810553,-1.378262602503617,-0.8845584139081584,-0.6130726856967404,0
-0.09561358148303002,-0.865050973046272,-0.14628547516085655,-0.46855189613662596,-1.7795955697367511,-1.4866471919318427,-0.5019747459353522,-0.45164139678177834,-1.2240146840984134,-0.8618345781047955,-1.1081039803076342,-0.9571682862457169,-0.860120451227045,-0.3155872766483457,0
0.09561358148303002,-0.6345456227761436,0.3296775098746738,-0.14610144386235624,-0.9327592378053802,-1.036787048746805,-0.4187203978290038,-0.6126723126260168,-1.6473235883515591,-0.1820901775277374,-0.4027682907146883,-0.2299593074599692,-0.27025511670868324,0.10485421421107709,0
0.09561358148303002,-0.4999904670900001,0.10989250329155793,-0.14610144386235624,-0.6782952473323498,-0.8566672648543383,-0.6276724871939559,-0.7095424729385492,-1.2240146840984134,0.22628682255883295,0.03340029727879036,0.30611466252791547,0.09823102646326555,0.0348375565131448,0
0.12727781950661693,-0.6150557395012719,0.10989250329155793,-0.08788914982343285,-0.5089279809460606,-0.8566672648543383,-0.4187203978290038,-0.22582069839091776,-0.1404908077022794,0.4985381559498799,0.23511189653100184,0.5360739699878847,0.1964620529265311,-0.05259787944139095,0
0.09561358148303002,-0.6922656617055719,0.7685339353571785,0.08788914982343285,-0.3816959857095455,-0.7661680563620562,0.1673249153117593,-0.09687016031253233,-0.8475360490794447,0.4525736451175855,0.2685121938097326,0.38301663872392694,0.1720240902454177,-0.017760322928246145,0
-0.07947102876513015,-0.7882158562895568,0.8413198790957758,-0.08788914982343285,-0.4659665280090936,-0.5412379847694974,0.501974745935315,-0.3226908587034501,-1.7419023673928988,0.2713674004904073,-0.30191249108858254,0.0,-0.04935510110103879,-0.26298939720695474,0
-0.09561358148303002,-0.8268208173917153,0.2925709503216482,-0.11699529684289454,-0.5089279809460606,-0.4507387762772153,0.377093223775811,-0.4195610190159824,-1.0826056358229805,0.0901611558633095,-0.7387359868717362,-0.3441923400618207,-0.31961021780972204,-0.3504248331614905,0
-0.1114457004948376,-0.7113807395328416,-0.14628547516085655,-0.05878300280397117,-0.5510632520958347,-0.4955490639773076,0.04162717405315563,-0.45164139678177834,-1.0357753665889708,-0.22717075545939217,-0.6044798899668997,-0.7272089787857476,-0.49163430805513975,-0.28040817546352714,0
-0.143420372224545,-0.5382206227445567,-0.14628547516085655,-0.1757782996468657,-0.2544639904730303,-0.4955490639773076,-0.08407056720544805,-0.45164139678177834,-1.4590842708420328,-0.4994220888504391,-0.4027682907146883,-0.9571682862457169,-0.3684861431719052,-0.2452290742787086,0
-0.031974671729707436,-0.2886001946471586,-0.21978500658311587,0.3509858905286317,0.04213527114977405,-0.5412379847694974,-0.2513954825172445,-0.6126723126260168,-1.6473235883515591,0.0901611558633095,-0.3359676961571076,-0.9571682862457169,-0.024437962681113378,-0.2452290742787086,0
-0.07947102876513015,-0.2886001946471586,-0.8049269072264771,0.6728656340378536,-0.2544639904730303,-0.5412379847694974,-0.2930226565704001,-0.6453817174069002,-1.4590842708420328,0.18120624462717821,-0.5370243876195249,-1.0721479399757015,-0.14758612756430434,-0.4382018137877,0
-0.23872352000148275,-0.4422704281605718,-1.2444969203927738,0.23399059368573719,-0.5089279809460606,-0.22580870468465644,0.04162717405315563,-0.25790107615671365,-0.7997875392721143,-0.36329642215491564,-0.6378801872456306,-1.0340702624417284,-0.27025511670868324,-0.40302271260288147,0
0.06363890975332258,-0.13455515568614346,-0.6950344039349192,0.4679811873715263,-0.1693672663862892,-0.2706189923847487,0.08407056720541094,-0.48372177454763143,-1.0826056358229805,-0.22717075545939217,-0.3359676961571076,-0.42109431625783217,0.14758612756430434,0.08743543595453575,0
0.3660013395080997,0.21139027244284156,0.25617797845241447,1.1414175301744796,0.3387345327725784,-0.5860482724695897,-0.2930226565704001,-1.1938932745012107,-1.8364811464342388,-0.22717075545939217,-0.23511189653100184,-0.15305733126388985,0.31961021780972204,0.2274687513504314,0
0.1592524912363526,-0.05772003892944535,0.14628547516085655,0.9953160863121233,0.5502370703085665,-0.2706189923847487,-0.2930226565704001,-0.8064126332510815,-0.6115482217625882,-0.40837700008657035,-0.6044798899668997,-0.4979962924539116,0.09823102646326555,-0.15779363832417284,0
-0.04780679074151501,-0.42315535033330204,-0.25617797845241447,0.6146533399989302,0.3387345327725784,0.13530949619237434,0.08407056720541094,-0.19374032062506466,-0.1882393175095262,-0.2722513333910469,-0.8395917864979016,-0.9571682862457169,-0.12266898914437892,-0.3155872766483457,0
-0.015832119011807574,-0.38455038923114354,-0.3296775098746738,0.6437594870183919,-0.2544639904730303,-0.09049920849228209,0.1673249153117593,-0.7095424729385492,-2.212959781453291,-0.31733191132270167,-0.7387359868717362,-1.1871275937056862,-0.4667171696351708,-0.28040817546352714,0
-0.015832119011807574,-0.4422704281605718,-0.14628547516085655,0.40976889333265476,-0.33956071455977144,0.08962057540018452,0.04162717405315563,-1.0001529538761462,-2.024720463943765,-0.7707894893409268,-0.7387359868717362,-0.8421886325157323,-0.540510233417323,-0.29782695372009954,0
-0.12727781950664516,-0.6536607006034134,0.03639297186929861,0.029106147019461688,0.12723199523651516,0.9005989194622531,0.377093223775811,-0.12895053807838544,0.047748509807246785,-0.7707894893409268,-0.7387359868717362,-0.3441923400618207,-0.31961021780972204,-0.29782695372009954,0
-0.1592524912363526,-0.7882158562895568,-0.07349953142225932,0.05878300280397117,0.12723199523651516,1.1264076241469096,0.9631385369165741,0.3868516142351563,0.0,-0.40837700008657035,-0.6719353923142152,-0.42109431625783217,-0.44227920695405737,-0.29782695372009954,0
-0.06363890975332258,-0.7113807395328416,0.07349953142225932,0.49765804315608764,-0.08509672408674111,0.6308585601696819,1.1304634522283705,0.09687016031253233,-0.4233089042531455,0.04508057793165475,-0.5710795926881094,-0.42109431625783217,-0.3934032815918742,-0.1226145371393543,0
0.06363890975332258,-0.38455038923114354,0.5487489287740627,0.9953160863121233,0.12723199523651516,-0.04481028770009226,0.586045313140763,-0.0647897825466792,0.18915755808267984,0.4525736451175855,-0.10085579962610573,0.03807767753397314,0.29469307938975303,0.15745209365246804,0
0.2070592819778676,-0.24999523354500006,0.8413198790957758,0.9953160863121233,0.12723199523651516,-0.22580870468465644,0.29302265657036297,-0.09687016031253233,0.047748509807246785,0.4985381559498799,0.20171159925221147,0.30611466252791547,0.3934032815918742,0.2448875296070038,0
0.19091672925993952,-0.5768255838467152,0.8049269072264771,0.6728656340378536,-0.29659926162280437,-0.04481028770009226,0.501974745935315,-0.25790107615671365,-0.5178876832944854,0.13524173379488386,-0.3359676961571076,-0.03807767753390523,-0.1964620529265311,0.0,0
